Date:	23-Sep-20		Time:	5:14 PM		Version no:	0.00		Project name:	55		Sample name:	222		Section name:	section		Position	46.745018	mm	E0	0.000000	keV	E1	1.000000	keV/channel	sample surface	8.057560	cm	Tube anode:	Mo		Tube voltage:	30	kV	Tube current:	30	mA	gain	15		std. database			resultfile	result		matrix element	11		sample thickness	1.000000		air passage	0.560000	cm	comments	in position		peaking_time	0.300000	m-sec	trigger_threshold	40.000000	V	mca_bin_width	2.000000	no:	number_mca_channels	2048.000000	no:	gap_time	2048.000000	m-sec	trigger_peaking_time	2048.000000	m-sec	GAINDAC	400		HIGHGAIN	400		TAURC	400		RCTAU	400		RCTAUFRAC	400		livetime	13.353748	seconds	runtime	15.000012	seconds	input_count_rate	50808.730539	cps	output_count_rate	45232.430481	cps	triggers	748367	seconds	events_in_run	661191	seconds	channel	content		1.000	0.000
2.000	0.000
3.000	0.000
4.000	0.000
5.000	0.000
6.000	0.000
7.000	0.000
8.000	0.000
9.000	0.000
10.000	0.000
11.000	0.000
12.000	0.000
13.000	0.000
14.000	0.000
15.000	0.000
16.000	0.000
17.000	0.000
18.000	0.000
19.000	0.000
20.000	0.000
21.000	0.000
22.000	0.000
23.000	0.000
24.000	0.000
25.000	0.000
26.000	0.000
27.000	0.000
28.000	0.000
29.000	0.000
30.000	0.000
31.000	0.000
32.000	0.000
33.000	0.000
34.000	0.000
35.000	0.000
36.000	0.000
37.000	1.000
38.000	0.000
39.000	0.000
40.000	1.000
41.000	1.000
42.000	0.000
43.000	0.000
44.000	0.000
45.000	0.000
46.000	0.000
47.000	0.000
48.000	0.000
49.000	0.000
50.000	1.000
51.000	0.000
52.000	2.000
53.000	3.000
54.000	3.000
55.000	4.000
56.000	12.000
57.000	5.000
58.000	21.000
59.000	17.000
60.000	25.000
61.000	29.000
62.000	26.000
63.000	33.000
64.000	26.000
65.000	43.000
66.000	20.000
67.000	39.000
68.000	26.000
69.000	37.000
70.000	24.000
71.000	24.000
72.000	24.000
73.000	24.000
74.000	22.000
75.000	21.000
76.000	25.000
77.000	26.000
78.000	26.000
79.000	27.000
80.000	25.000
81.000	33.000
82.000	19.000
83.000	26.000
84.000	25.000
85.000	28.000
86.000	23.000
87.000	14.000
88.000	18.000
89.000	23.000
90.000	34.000
91.000	25.000
92.000	24.000
93.000	18.000
94.000	26.000
95.000	21.000
96.000	24.000
97.000	17.000
98.000	25.000
99.000	28.000
100.000	19.000
101.000	31.000
102.000	19.000
103.000	18.000
104.000	20.000
105.000	17.000
106.000	21.000
107.000	20.000
108.000	24.000
109.000	16.000
110.000	14.000
111.000	16.000
112.000	12.000
113.000	18.000
114.000	20.000
115.000	16.000
116.000	15.000
117.000	12.000
118.000	22.000
119.000	17.000
120.000	19.000
121.000	16.000
122.000	18.000
123.000	12.000
124.000	18.000
125.000	17.000
126.000	18.000
127.000	15.000
128.000	19.000
129.000	11.000
130.000	12.000
131.000	10.000
132.000	14.000
133.000	11.000
134.000	12.000
135.000	11.000
136.000	15.000
137.000	15.000
138.000	18.000
139.000	11.000
140.000	19.000
141.000	25.000
142.000	22.000
143.000	22.000
144.000	25.000
145.000	27.000
146.000	23.000
147.000	23.000
148.000	24.000
149.000	25.000
150.000	21.000
151.000	26.000
152.000	20.000
153.000	29.000
154.000	22.000
155.000	18.000
156.000	16.000
157.000	17.000
158.000	18.000
159.000	17.000
160.000	18.000
161.000	21.000
162.000	22.000
163.000	16.000
164.000	34.000
165.000	43.000
166.000	36.000
167.000	72.000
168.000	75.000
169.000	84.000
170.000	86.000
171.000	102.000
172.000	88.000
173.000	66.000
174.000	68.000
175.000	57.000
176.000	45.000
177.000	29.000
178.000	33.000
179.000	25.000
180.000	24.000
181.000	28.000
182.000	19.000
183.000	28.000
184.000	24.000
185.000	40.000
186.000	32.000
187.000	36.000
188.000	47.000
189.000	60.000
190.000	58.000
191.000	62.000
192.000	58.000
193.000	56.000
194.000	62.000
195.000	41.000
196.000	43.000
197.000	26.000
198.000	24.000
199.000	18.000
200.000	24.000
201.000	13.000
202.000	12.000
203.000	10.000
204.000	13.000
205.000	12.000
206.000	12.000
207.000	12.000
208.000	12.000
209.000	15.000
210.000	7.000
211.000	16.000
212.000	5.000
213.000	8.000
214.000	11.000
215.000	17.000
216.000	12.000
217.000	16.000
218.000	13.000
219.000	17.000
220.000	18.000
221.000	15.000
222.000	19.000
223.000	16.000
224.000	29.000
225.000	13.000
226.000	19.000
227.000	16.000
228.000	12.000
229.000	8.000
230.000	15.000
231.000	13.000
232.000	10.000
233.000	7.000
234.000	8.000
235.000	13.000
236.000	14.000
237.000	15.000
238.000	8.000
239.000	8.000
240.000	8.000
241.000	8.000
242.000	11.000
243.000	16.000
244.000	9.000
245.000	22.000
246.000	5.000
247.000	19.000
248.000	24.000
249.000	19.000
250.000	36.000
251.000	44.000
252.000	64.000
253.000	81.000
254.000	78.000
255.000	86.000
256.000	119.000
257.000	109.000
258.000	104.000
259.000	121.000
260.000	97.000
261.000	82.000
262.000	62.000
263.000	57.000
264.000	41.000
265.000	25.000
266.000	18.000
267.000	23.000
268.000	23.000
269.000	22.000
270.000	30.000
271.000	24.000
272.000	21.000
273.000	28.000
274.000	25.000
275.000	29.000
276.000	27.000
277.000	19.000
278.000	23.000
279.000	25.000
280.000	18.000
281.000	20.000
282.000	29.000
283.000	26.000
284.000	44.000
285.000	29.000
286.000	63.000
287.000	70.000
288.000	63.000
289.000	65.000
290.000	55.000
291.000	74.000
292.000	58.000
293.000	66.000
294.000	64.000
295.000	29.000
296.000	29.000
297.000	27.000
298.000	20.000
299.000	23.000
300.000	16.000
301.000	16.000
302.000	9.000
303.000	10.000
304.000	14.000
305.000	12.000
306.000	14.000
307.000	16.000
308.000	18.000
309.000	22.000
310.000	27.000
311.000	32.000
312.000	29.000
313.000	44.000
314.000	53.000
315.000	86.000
316.000	108.000
317.000	159.000
318.000	227.000
319.000	319.000
320.000	364.000
321.000	449.000
322.000	512.000
323.000	547.000
324.000	600.000
325.000	621.000
326.000	604.000
327.000	556.000
328.000	472.000
329.000	355.000
330.000	285.000
331.000	207.000
332.000	162.000
333.000	83.000
334.000	84.000
335.000	48.000
336.000	32.000
337.000	34.000
338.000	24.000
339.000	21.000
340.000	22.000
341.000	27.000
342.000	44.000
343.000	50.000
344.000	48.000
345.000	67.000
346.000	106.000
347.000	123.000
348.000	164.000
349.000	234.000
350.000	311.000
351.000	451.000
352.000	721.000
353.000	945.000
354.000	1400.000
355.000	1840.000
356.000	2349.000
357.000	2920.000
358.000	3406.000
359.000	3834.000
360.000	4231.000
361.000	4497.000
362.000	4386.000
363.000	4170.000
364.000	3728.000
365.000	3344.000
366.000	2694.000
367.000	2132.000
368.000	1587.000
369.000	1145.000
370.000	746.000
371.000	511.000
372.000	337.000
373.000	194.000
374.000	152.000
375.000	96.000
376.000	77.000
377.000	42.000
378.000	45.000
379.000	57.000
380.000	56.000
381.000	65.000
382.000	113.000
383.000	115.000
384.000	159.000
385.000	241.000
386.000	305.000
387.000	372.000
388.000	512.000
389.000	532.000
390.000	607.000
391.000	672.000
392.000	717.000
393.000	756.000
394.000	675.000
395.000	589.000
396.000	546.000
397.000	439.000
398.000	351.000
399.000	324.000
400.000	245.000
401.000	160.000
402.000	129.000
403.000	90.000
404.000	51.000
405.000	38.000
406.000	19.000
407.000	23.000
408.000	18.000
409.000	10.000
410.000	21.000
411.000	14.000
412.000	10.000
413.000	7.000
414.000	16.000
415.000	10.000
416.000	12.000
417.000	13.000
418.000	11.000
419.000	7.000
420.000	9.000
421.000	14.000
422.000	17.000
423.000	14.000
424.000	15.000
425.000	18.000
426.000	19.000
427.000	29.000
428.000	31.000
429.000	67.000
430.000	75.000
431.000	106.000
432.000	125.000
433.000	216.000
434.000	255.000
435.000	312.000
436.000	388.000
437.000	449.000
438.000	540.000
439.000	607.000
440.000	644.000
441.000	658.000
442.000	600.000
443.000	617.000
444.000	535.000
445.000	472.000
446.000	364.000
447.000	317.000
448.000	272.000
449.000	231.000
450.000	166.000
451.000	151.000
452.000	117.000
453.000	98.000
454.000	92.000
455.000	92.000
456.000	79.000
457.000	67.000
458.000	77.000
459.000	60.000
460.000	57.000
461.000	48.000
462.000	44.000
463.000	39.000
464.000	31.000
465.000	41.000
466.000	33.000
467.000	48.000
468.000	52.000
469.000	47.000
470.000	52.000
471.000	45.000
472.000	56.000
473.000	66.000
474.000	71.000
475.000	84.000
476.000	101.000
477.000	90.000
478.000	135.000
479.000	124.000
480.000	142.000
481.000	137.000
482.000	149.000
483.000	133.000
484.000	122.000
485.000	153.000
486.000	120.000
487.000	113.000
488.000	96.000
489.000	85.000
490.000	75.000
491.000	57.000
492.000	48.000
493.000	39.000
494.000	36.000
495.000	31.000
496.000	39.000
497.000	27.000
498.000	31.000
499.000	34.000
500.000	31.000
501.000	36.000
502.000	32.000
503.000	25.000
504.000	34.000
505.000	34.000
506.000	30.000
507.000	38.000
508.000	43.000
509.000	45.000
510.000	39.000
511.000	41.000
512.000	33.000
513.000	45.000
514.000	48.000
515.000	44.000
516.000	40.000
517.000	59.000
518.000	48.000
519.000	63.000
520.000	58.000
521.000	66.000
522.000	80.000
523.000	78.000
524.000	73.000
525.000	83.000
526.000	89.000
527.000	98.000
528.000	75.000
529.000	78.000
530.000	88.000
531.000	96.000
532.000	87.000
533.000	101.000
534.000	65.000
535.000	80.000
536.000	60.000
537.000	64.000
538.000	66.000
539.000	55.000
540.000	47.000
541.000	35.000
542.000	43.000
543.000	49.000
544.000	33.000
545.000	51.000
546.000	29.000
547.000	35.000
548.000	50.000
549.000	41.000
550.000	52.000
551.000	37.000
552.000	45.000
553.000	34.000
554.000	43.000
555.000	45.000
556.000	50.000
557.000	45.000
558.000	41.000
559.000	31.000
560.000	46.000
561.000	62.000
562.000	67.000
563.000	71.000
564.000	94.000
565.000	95.000
566.000	129.000
567.000	143.000
568.000	190.000
569.000	228.000
570.000	309.000
571.000	306.000
572.000	345.000
573.000	407.000
574.000	411.000
575.000	415.000
576.000	454.000
577.000	487.000
578.000	412.000
579.000	457.000
580.000	396.000
581.000	367.000
582.000	268.000
583.000	255.000
584.000	186.000
585.000	172.000
586.000	140.000
587.000	115.000
588.000	89.000
589.000	87.000
590.000	72.000
591.000	54.000
592.000	76.000
593.000	62.000
594.000	60.000
595.000	57.000
596.000	52.000
597.000	64.000
598.000	78.000
599.000	81.000
600.000	80.000
601.000	80.000
602.000	73.000
603.000	80.000
604.000	107.000
605.000	143.000
606.000	172.000
607.000	227.000
608.000	313.000
609.000	416.000
610.000	622.000
611.000	896.000
612.000	1270.000
613.000	1802.000
614.000	2473.000
615.000	3276.000
616.000	4461.000
617.000	5584.000
618.000	7295.000
619.000	8802.000
620.000	10501.000
621.000	12184.000
622.000	13353.000
623.000	14919.000
624.000	15757.000
625.000	16193.000
626.000	16245.000
627.000	15292.000
628.000	14243.000
629.000	12883.000
630.000	11833.000
631.000	9964.000
632.000	8149.000
633.000	6507.000
634.000	5232.000
635.000	3968.000
636.000	3008.000
637.000	2146.000
638.000	1541.000
639.000	1050.000
640.000	790.000
641.000	504.000
642.000	327.000
643.000	285.000
644.000	214.000
645.000	167.000
646.000	131.000
647.000	114.000
648.000	102.000
649.000	109.000
650.000	107.000
651.000	92.000
652.000	82.000
653.000	98.000
654.000	87.000
655.000	98.000
656.000	104.000
657.000	100.000
658.000	99.000
659.000	124.000
660.000	80.000
661.000	101.000
662.000	114.000
663.000	115.000
664.000	114.000
665.000	110.000
666.000	111.000
667.000	124.000
668.000	147.000
669.000	157.000
670.000	162.000
671.000	149.000
672.000	224.000
673.000	237.000
674.000	277.000
675.000	352.000
676.000	400.000
677.000	554.000
678.000	606.000
679.000	780.000
680.000	982.000
681.000	1158.000
682.000	1467.000
683.000	1626.000
684.000	1823.000
685.000	2093.000
686.000	2361.000
687.000	2518.000
688.000	2557.000
689.000	2548.000
690.000	2577.000
691.000	2454.000
692.000	2380.000
693.000	2157.000
694.000	1933.000
695.000	1669.000
696.000	1495.000
697.000	1120.000
698.000	974.000
699.000	780.000
700.000	605.000
701.000	480.000
702.000	334.000
703.000	270.000
704.000	203.000
705.000	161.000
706.000	137.000
707.000	98.000
708.000	95.000
709.000	71.000
710.000	72.000
711.000	65.000
712.000	75.000
713.000	76.000
714.000	64.000
715.000	90.000
716.000	74.000
717.000	86.000
718.000	94.000
719.000	76.000
720.000	99.000
721.000	106.000
722.000	88.000
723.000	86.000
724.000	122.000
725.000	119.000
726.000	114.000
727.000	109.000
728.000	124.000
729.000	113.000
730.000	126.000
731.000	122.000
732.000	141.000
733.000	124.000
734.000	118.000
735.000	120.000
736.000	106.000
737.000	108.000
738.000	105.000
739.000	103.000
740.000	102.000
741.000	92.000
742.000	97.000
743.000	90.000
744.000	90.000
745.000	89.000
746.000	84.000
747.000	104.000
748.000	96.000
749.000	77.000
750.000	71.000
751.000	83.000
752.000	94.000
753.000	91.000
754.000	111.000
755.000	90.000
756.000	95.000
757.000	79.000
758.000	100.000
759.000	86.000
760.000	76.000
761.000	79.000
762.000	77.000
763.000	111.000
764.000	104.000
765.000	100.000
766.000	90.000
767.000	100.000
768.000	113.000
769.000	113.000
770.000	91.000
771.000	92.000
772.000	100.000
773.000	123.000
774.000	122.000
775.000	105.000
776.000	120.000
777.000	119.000
778.000	161.000
779.000	139.000
780.000	146.000
781.000	146.000
782.000	161.000
783.000	171.000
784.000	179.000
785.000	203.000
786.000	178.000
787.000	207.000
788.000	202.000
789.000	166.000
790.000	223.000
791.000	170.000
792.000	212.000
793.000	196.000
794.000	225.000
795.000	198.000
796.000	192.000
797.000	190.000
798.000	178.000
799.000	191.000
800.000	190.000
801.000	169.000
802.000	195.000
803.000	180.000
804.000	170.000
805.000	198.000
806.000	205.000
807.000	206.000
808.000	210.000
809.000	215.000
810.000	217.000
811.000	241.000
812.000	242.000
813.000	260.000
814.000	250.000
815.000	334.000
816.000	334.000
817.000	311.000
818.000	336.000
819.000	317.000
820.000	313.000
821.000	326.000
822.000	320.000
823.000	302.000
824.000	235.000
825.000	261.000
826.000	240.000
827.000	238.000
828.000	204.000
829.000	156.000
830.000	173.000
831.000	177.000
832.000	167.000
833.000	171.000
834.000	172.000
835.000	163.000
836.000	188.000
837.000	171.000
838.000	177.000
839.000	178.000
840.000	180.000
841.000	182.000
842.000	174.000
843.000	159.000
844.000	177.000
845.000	190.000
846.000	170.000
847.000	176.000
848.000	187.000
849.000	159.000
850.000	147.000
851.000	150.000
852.000	169.000
853.000	119.000
854.000	173.000
855.000	149.000
856.000	120.000
857.000	136.000
858.000	123.000
859.000	140.000
860.000	136.000
861.000	118.000
862.000	117.000
863.000	162.000
864.000	145.000
865.000	120.000
866.000	146.000
867.000	160.000
868.000	148.000
869.000	141.000
870.000	154.000
871.000	126.000
872.000	141.000
873.000	152.000
874.000	151.000
875.000	145.000
876.000	153.000
877.000	115.000
878.000	142.000
879.000	146.000
880.000	118.000
881.000	157.000
882.000	166.000
883.000	140.000
884.000	178.000
885.000	159.000
886.000	159.000
887.000	133.000
888.000	157.000
889.000	170.000
890.000	141.000
891.000	139.000
892.000	186.000
893.000	186.000
894.000	162.000
895.000	170.000
896.000	157.000
897.000	182.000
898.000	174.000
899.000	173.000
900.000	182.000
901.000	180.000
902.000	191.000
903.000	183.000
904.000	181.000
905.000	206.000
906.000	165.000
907.000	198.000
908.000	224.000
909.000	197.000
910.000	211.000
911.000	219.000
912.000	185.000
913.000	202.000
914.000	211.000
915.000	225.000
916.000	200.000
917.000	196.000
918.000	189.000
919.000	204.000
920.000	232.000
921.000	222.000
922.000	239.000
923.000	229.000
924.000	211.000
925.000	242.000
926.000	240.000
927.000	206.000
928.000	205.000
929.000	224.000
930.000	222.000
931.000	259.000
932.000	231.000
933.000	237.000
934.000	279.000
935.000	262.000
936.000	258.000
937.000	275.000
938.000	274.000
939.000	292.000
940.000	282.000
941.000	315.000
942.000	262.000
943.000	285.000
944.000	292.000
945.000	287.000
946.000	287.000
947.000	284.000
948.000	251.000
949.000	267.000
950.000	293.000
951.000	225.000
952.000	252.000
953.000	258.000
954.000	247.000
955.000	201.000
956.000	229.000
957.000	203.000
958.000	207.000
959.000	181.000
960.000	197.000
961.000	206.000
962.000	209.000
963.000	178.000
964.000	195.000
965.000	206.000
966.000	220.000
967.000	204.000
968.000	207.000
969.000	189.000
970.000	199.000
971.000	244.000
972.000	202.000
973.000	234.000
974.000	195.000
975.000	198.000
976.000	191.000
977.000	212.000
978.000	191.000
979.000	172.000
980.000	187.000
981.000	184.000
982.000	184.000
983.000	183.000
984.000	182.000
985.000	179.000
986.000	152.000
987.000	167.000
988.000	134.000
989.000	137.000
990.000	158.000
991.000	185.000
992.000	165.000
993.000	159.000
994.000	156.000
995.000	163.000
996.000	148.000
997.000	158.000
998.000	156.000
999.000	140.000
1000.000	170.000
1001.000	140.000
1002.000	145.000
1003.000	182.000
1004.000	150.000
1005.000	165.000
1006.000	155.000
1007.000	156.000
1008.000	174.000
1009.000	164.000
1010.000	142.000
1011.000	169.000
1012.000	165.000
1013.000	171.000
1014.000	142.000
1015.000	181.000
1016.000	155.000
1017.000	160.000
1018.000	148.000
1019.000	168.000
1020.000	159.000
1021.000	133.000
1022.000	162.000
1023.000	173.000
1024.000	174.000
1025.000	159.000
1026.000	157.000
1027.000	177.000
1028.000	165.000
1029.000	186.000
1030.000	160.000
1031.000	171.000
1032.000	169.000
1033.000	148.000
1034.000	193.000
1035.000	147.000
1036.000	157.000
1037.000	143.000
1038.000	186.000
1039.000	153.000
1040.000	186.000
1041.000	171.000
1042.000	151.000
1043.000	178.000
1044.000	183.000
1045.000	196.000
1046.000	162.000
1047.000	166.000
1048.000	142.000
1049.000	171.000
1050.000	194.000
1051.000	170.000
1052.000	175.000
1053.000	182.000
1054.000	187.000
1055.000	176.000
1056.000	166.000
1057.000	197.000
1058.000	201.000
1059.000	169.000
1060.000	167.000
1061.000	171.000
1062.000	184.000
1063.000	186.000
1064.000	200.000
1065.000	175.000
1066.000	206.000
1067.000	154.000
1068.000	180.000
1069.000	154.000
1070.000	192.000
1071.000	191.000
1072.000	168.000
1073.000	168.000
1074.000	181.000
1075.000	175.000
1076.000	173.000
1077.000	170.000
1078.000	184.000
1079.000	185.000
1080.000	204.000
1081.000	174.000
1082.000	169.000
1083.000	198.000
1084.000	186.000
1085.000	190.000
1086.000	175.000
1087.000	196.000
1088.000	178.000
1089.000	200.000
1090.000	170.000
1091.000	203.000
1092.000	187.000
1093.000	197.000
1094.000	192.000
1095.000	180.000
1096.000	202.000
1097.000	189.000
1098.000	185.000
1099.000	190.000
1100.000	202.000
1101.000	199.000
1102.000	208.000
1103.000	189.000
1104.000	193.000
1105.000	169.000
1106.000	196.000
1107.000	199.000
1108.000	212.000
1109.000	176.000
1110.000	181.000
1111.000	178.000
1112.000	168.000
1113.000	160.000
1114.000	179.000
1115.000	205.000
1116.000	187.000
1117.000	164.000
1118.000	178.000
1119.000	179.000
1120.000	193.000
1121.000	182.000
1122.000	187.000
1123.000	170.000
1124.000	180.000
1125.000	167.000
1126.000	178.000
1127.000	159.000
1128.000	154.000
1129.000	176.000
1130.000	205.000
1131.000	200.000
1132.000	181.000
1133.000	179.000
1134.000	183.000
1135.000	168.000
1136.000	179.000
1137.000	190.000
1138.000	169.000
1139.000	147.000
1140.000	167.000
1141.000	197.000
1142.000	198.000
1143.000	195.000
1144.000	182.000
1145.000	176.000
1146.000	187.000
1147.000	197.000
1148.000	209.000
1149.000	198.000
1150.000	180.000
1151.000	214.000
1152.000	192.000
1153.000	193.000
