Date:	23-Sep-20		Time:	6:44 PM		Version no:	0.00		Project name:	55		Sample name:	222		Section name:	section		Position	383.745018	mm	E0	0.000000	keV	E1	1.000000	keV/channel	sample surface	7.767292	cm	Tube anode:	Mo		Tube voltage:	30	kV	Tube current:	30	mA	gain	15		std. database			resultfile	result		matrix element	11		sample thickness	1.000000		air passage	0.560000	cm	comments	in position		peaking_time	0.300000	m-sec	trigger_threshold	40.000000	V	mca_bin_width	2.000000	no:	number_mca_channels	2048.000000	no:	gap_time	2048.000000	m-sec	trigger_peaking_time	2048.000000	m-sec	GAINDAC	400		HIGHGAIN	400		TAURC	400		RCTAU	400		RCTAUFRAC	400		livetime	13.494891	seconds	runtime	15.000044	seconds	input_count_rate	48842.040418	cps	output_count_rate	43941.069641	cps	triggers	721176	seconds	events_in_run	644692	seconds	channel	content		1.000	0.000
2.000	0.000
3.000	0.000
4.000	0.000
5.000	0.000
6.000	0.000
7.000	0.000
8.000	0.000
9.000	0.000
10.000	0.000
11.000	0.000
12.000	0.000
13.000	0.000
14.000	0.000
15.000	0.000
16.000	0.000
17.000	0.000
18.000	0.000
19.000	0.000
20.000	0.000
21.000	0.000
22.000	0.000
23.000	0.000
24.000	0.000
25.000	0.000
26.000	0.000
27.000	0.000
28.000	0.000
29.000	0.000
30.000	0.000
31.000	0.000
32.000	0.000
33.000	0.000
34.000	0.000
35.000	0.000
36.000	0.000
37.000	1.000
38.000	0.000
39.000	0.000
40.000	0.000
41.000	1.000
42.000	1.000
43.000	0.000
44.000	1.000
45.000	0.000
46.000	0.000
47.000	0.000
48.000	0.000
49.000	0.000
50.000	2.000
51.000	2.000
52.000	3.000
53.000	4.000
54.000	3.000
55.000	5.000
56.000	3.000
57.000	9.000
58.000	22.000
59.000	17.000
60.000	18.000
61.000	26.000
62.000	31.000
63.000	35.000
64.000	33.000
65.000	23.000
66.000	20.000
67.000	23.000
68.000	31.000
69.000	29.000
70.000	28.000
71.000	25.000
72.000	24.000
73.000	17.000
74.000	22.000
75.000	26.000
76.000	26.000
77.000	18.000
78.000	21.000
79.000	28.000
80.000	38.000
81.000	22.000
82.000	22.000
83.000	26.000
84.000	26.000
85.000	27.000
86.000	26.000
87.000	28.000
88.000	36.000
89.000	26.000
90.000	30.000
91.000	19.000
92.000	26.000
93.000	18.000
94.000	21.000
95.000	18.000
96.000	27.000
97.000	27.000
98.000	17.000
99.000	17.000
100.000	23.000
101.000	14.000
102.000	23.000
103.000	18.000
104.000	18.000
105.000	16.000
106.000	33.000
107.000	19.000
108.000	29.000
109.000	19.000
110.000	17.000
111.000	15.000
112.000	11.000
113.000	12.000
114.000	18.000
115.000	16.000
116.000	15.000
117.000	15.000
118.000	9.000
119.000	9.000
120.000	21.000
121.000	13.000
122.000	17.000
123.000	21.000
124.000	14.000
125.000	15.000
126.000	13.000
127.000	15.000
128.000	12.000
129.000	12.000
130.000	12.000
131.000	13.000
132.000	21.000
133.000	13.000
134.000	15.000
135.000	13.000
136.000	9.000
137.000	24.000
138.000	20.000
139.000	11.000
140.000	13.000
141.000	15.000
142.000	15.000
143.000	29.000
144.000	33.000
145.000	21.000
146.000	29.000
147.000	25.000
148.000	21.000
149.000	22.000
150.000	31.000
151.000	22.000
152.000	18.000
153.000	14.000
154.000	13.000
155.000	24.000
156.000	13.000
157.000	14.000
158.000	16.000
159.000	12.000
160.000	17.000
161.000	9.000
162.000	18.000
163.000	17.000
164.000	19.000
165.000	22.000
166.000	23.000
167.000	34.000
168.000	41.000
169.000	44.000
170.000	35.000
171.000	46.000
172.000	43.000
173.000	34.000
174.000	37.000
175.000	29.000
176.000	29.000
177.000	39.000
178.000	33.000
179.000	26.000
180.000	28.000
181.000	37.000
182.000	47.000
183.000	62.000
184.000	76.000
185.000	100.000
186.000	155.000
187.000	177.000
188.000	211.000
189.000	248.000
190.000	276.000
191.000	282.000
192.000	262.000
193.000	262.000
194.000	187.000
195.000	181.000
196.000	110.000
197.000	82.000
198.000	71.000
199.000	40.000
200.000	34.000
201.000	22.000
202.000	18.000
203.000	26.000
204.000	14.000
205.000	14.000
206.000	19.000
207.000	10.000
208.000	10.000
209.000	24.000
210.000	16.000
211.000	19.000
212.000	21.000
213.000	19.000
214.000	15.000
215.000	21.000
216.000	25.000
217.000	34.000
218.000	34.000
219.000	51.000
220.000	44.000
221.000	56.000
222.000	48.000
223.000	61.000
224.000	54.000
225.000	46.000
226.000	38.000
227.000	40.000
228.000	38.000
229.000	27.000
230.000	22.000
231.000	19.000
232.000	23.000
233.000	19.000
234.000	15.000
235.000	15.000
236.000	11.000
237.000	17.000
238.000	16.000
239.000	22.000
240.000	15.000
241.000	14.000
242.000	10.000
243.000	13.000
244.000	15.000
245.000	19.000
246.000	19.000
247.000	22.000
248.000	32.000
249.000	33.000
250.000	60.000
251.000	84.000
252.000	112.000
253.000	134.000
254.000	139.000
255.000	167.000
256.000	194.000
257.000	199.000
258.000	213.000
259.000	184.000
260.000	160.000
261.000	140.000
262.000	95.000
263.000	68.000
264.000	60.000
265.000	43.000
266.000	50.000
267.000	29.000
268.000	23.000
269.000	22.000
270.000	30.000
271.000	28.000
272.000	36.000
273.000	36.000
274.000	22.000
275.000	40.000
276.000	37.000
277.000	42.000
278.000	36.000
279.000	45.000
280.000	31.000
281.000	35.000
282.000	29.000
283.000	34.000
284.000	42.000
285.000	46.000
286.000	67.000
287.000	83.000
288.000	81.000
289.000	63.000
290.000	96.000
291.000	90.000
292.000	64.000
293.000	66.000
294.000	54.000
295.000	54.000
296.000	42.000
297.000	35.000
298.000	39.000
299.000	30.000
300.000	35.000
301.000	26.000
302.000	24.000
303.000	29.000
304.000	31.000
305.000	26.000
306.000	31.000
307.000	31.000
308.000	35.000
309.000	36.000
310.000	31.000
311.000	34.000
312.000	41.000
313.000	41.000
314.000	56.000
315.000	46.000
316.000	68.000
317.000	74.000
318.000	107.000
319.000	129.000
320.000	156.000
321.000	195.000
322.000	212.000
323.000	215.000
324.000	217.000
325.000	235.000
326.000	248.000
327.000	205.000
328.000	183.000
329.000	137.000
330.000	111.000
331.000	93.000
332.000	75.000
333.000	58.000
334.000	53.000
335.000	42.000
336.000	34.000
337.000	38.000
338.000	33.000
339.000	41.000
340.000	41.000
341.000	56.000
342.000	66.000
343.000	85.000
344.000	118.000
345.000	149.000
346.000	200.000
347.000	332.000
348.000	517.000
349.000	784.000
350.000	1325.000
351.000	2189.000
352.000	3261.000
353.000	4780.000
354.000	6696.000
355.000	9308.000
356.000	12022.000
357.000	15111.000
358.000	17812.000
359.000	20424.000
360.000	22398.000
361.000	23349.000
362.000	23094.000
363.000	21941.000
364.000	19803.000
365.000	17331.000
366.000	14164.000
367.000	11106.000
368.000	8322.000
369.000	5904.000
370.000	4088.000
371.000	2644.000
372.000	1790.000
373.000	1070.000
374.000	658.000
375.000	396.000
376.000	307.000
377.000	209.000
378.000	196.000
379.000	213.000
380.000	256.000
381.000	346.000
382.000	393.000
383.000	583.000
384.000	775.000
385.000	1114.000
386.000	1357.000
387.000	1796.000
388.000	2150.000
389.000	2655.000
390.000	2975.000
391.000	3378.000
392.000	3477.000
393.000	3465.000
394.000	3329.000
395.000	3139.000
396.000	2786.000
397.000	2428.000
398.000	1895.000
399.000	1566.000
400.000	1139.000
401.000	839.000
402.000	576.000
403.000	345.000
404.000	227.000
405.000	151.000
406.000	76.000
407.000	56.000
408.000	39.000
409.000	21.000
410.000	14.000
411.000	20.000
412.000	7.000
413.000	5.000
414.000	6.000
415.000	5.000
416.000	4.000
417.000	6.000
418.000	6.000
419.000	4.000
420.000	7.000
421.000	4.000
422.000	8.000
423.000	10.000
424.000	11.000
425.000	10.000
426.000	10.000
427.000	16.000
428.000	14.000
429.000	13.000
430.000	19.000
431.000	22.000
432.000	35.000
433.000	43.000
434.000	40.000
435.000	73.000
436.000	81.000
437.000	130.000
438.000	116.000
439.000	135.000
440.000	116.000
441.000	119.000
442.000	121.000
443.000	132.000
444.000	100.000
445.000	96.000
446.000	84.000
447.000	77.000
448.000	53.000
449.000	48.000
450.000	36.000
451.000	33.000
452.000	25.000
453.000	27.000
454.000	19.000
455.000	25.000
456.000	33.000
457.000	26.000
458.000	27.000
459.000	12.000
460.000	15.000
461.000	18.000
462.000	24.000
463.000	14.000
464.000	13.000
465.000	14.000
466.000	16.000
467.000	10.000
468.000	12.000
469.000	8.000
470.000	18.000
471.000	12.000
472.000	17.000
473.000	19.000
474.000	18.000
475.000	24.000
476.000	22.000
477.000	28.000
478.000	31.000
479.000	23.000
480.000	24.000
481.000	42.000
482.000	37.000
483.000	28.000
484.000	36.000
485.000	25.000
486.000	30.000
487.000	27.000
488.000	24.000
489.000	20.000
490.000	30.000
491.000	14.000
492.000	24.000
493.000	18.000
494.000	17.000
495.000	10.000
496.000	16.000
497.000	19.000
498.000	17.000
499.000	17.000
500.000	15.000
501.000	18.000
502.000	14.000
503.000	14.000
504.000	13.000
505.000	19.000
506.000	14.000
507.000	16.000
508.000	20.000
509.000	16.000
510.000	19.000
511.000	29.000
512.000	20.000
513.000	21.000
514.000	18.000
515.000	28.000
516.000	18.000
517.000	23.000
518.000	24.000
519.000	21.000
520.000	29.000
521.000	30.000
522.000	35.000
523.000	30.000
524.000	27.000
525.000	36.000
526.000	46.000
527.000	39.000
528.000	44.000
529.000	46.000
530.000	33.000
531.000	39.000
532.000	29.000
533.000	40.000
534.000	33.000
535.000	26.000
536.000	16.000
537.000	30.000
538.000	30.000
539.000	22.000
540.000	19.000
541.000	16.000
542.000	19.000
543.000	18.000
544.000	16.000
545.000	16.000
546.000	14.000
547.000	16.000
548.000	30.000
549.000	18.000
550.000	28.000
551.000	33.000
552.000	32.000
553.000	14.000
554.000	29.000
555.000	23.000
556.000	29.000
557.000	27.000
558.000	26.000
559.000	35.000
560.000	30.000
561.000	37.000
562.000	40.000
563.000	25.000
564.000	45.000
565.000	43.000
566.000	42.000
567.000	51.000
568.000	48.000
569.000	48.000
570.000	62.000
571.000	65.000
572.000	83.000
573.000	102.000
574.000	106.000
575.000	106.000
576.000	123.000
577.000	120.000
578.000	105.000
579.000	106.000
580.000	85.000
581.000	84.000
582.000	94.000
583.000	73.000
584.000	59.000
585.000	51.000
586.000	48.000
587.000	39.000
588.000	31.000
589.000	32.000
590.000	34.000
591.000	35.000
592.000	25.000
593.000	23.000
594.000	20.000
595.000	30.000
596.000	25.000
597.000	34.000
598.000	25.000
599.000	27.000
600.000	23.000
601.000	30.000
602.000	26.000
603.000	30.000
604.000	33.000
605.000	44.000
606.000	43.000
607.000	50.000
608.000	81.000
609.000	113.000
610.000	130.000
611.000	181.000
612.000	256.000
613.000	355.000
614.000	443.000
615.000	599.000
616.000	808.000
617.000	1051.000
618.000	1317.000
619.000	1707.000
620.000	1938.000
621.000	2123.000
622.000	2432.000
623.000	2663.000
624.000	2858.000
625.000	2798.000
626.000	2882.000
627.000	2744.000
628.000	2564.000
629.000	2315.000
630.000	2081.000
631.000	1775.000
632.000	1538.000
633.000	1255.000
634.000	986.000
635.000	756.000
636.000	611.000
637.000	389.000
638.000	283.000
639.000	221.000
640.000	183.000
641.000	153.000
642.000	102.000
643.000	93.000
644.000	69.000
645.000	56.000
646.000	72.000
647.000	58.000
648.000	57.000
649.000	55.000
650.000	55.000
651.000	52.000
652.000	54.000
653.000	51.000
654.000	55.000
655.000	49.000
656.000	43.000
657.000	50.000
658.000	55.000
659.000	49.000
660.000	54.000
661.000	44.000
662.000	72.000
663.000	54.000
664.000	63.000
665.000	58.000
666.000	76.000
667.000	59.000
668.000	60.000
669.000	78.000
670.000	74.000
671.000	62.000
672.000	89.000
673.000	77.000
674.000	79.000
675.000	124.000
676.000	101.000
677.000	124.000
678.000	149.000
679.000	181.000
680.000	220.000
681.000	236.000
682.000	303.000
683.000	300.000
684.000	363.000
685.000	400.000
686.000	463.000
687.000	505.000
688.000	516.000
689.000	490.000
690.000	513.000
691.000	482.000
692.000	450.000
693.000	478.000
694.000	381.000
695.000	358.000
696.000	327.000
697.000	260.000
698.000	197.000
699.000	148.000
700.000	143.000
701.000	129.000
702.000	100.000
703.000	103.000
704.000	87.000
705.000	59.000
706.000	52.000
707.000	71.000
708.000	64.000
709.000	48.000
710.000	62.000
711.000	57.000
712.000	63.000
713.000	55.000
714.000	59.000
715.000	72.000
716.000	74.000
717.000	80.000
718.000	77.000
719.000	73.000
720.000	85.000
721.000	103.000
722.000	83.000
723.000	85.000
724.000	95.000
725.000	97.000
726.000	114.000
727.000	112.000
728.000	98.000
729.000	99.000
730.000	84.000
731.000	92.000
732.000	71.000
733.000	89.000
734.000	87.000
735.000	81.000
736.000	69.000
737.000	78.000
738.000	86.000
739.000	76.000
740.000	69.000
741.000	66.000
742.000	71.000
743.000	69.000
744.000	55.000
745.000	75.000
746.000	66.000
747.000	78.000
748.000	57.000
749.000	75.000
750.000	80.000
751.000	82.000
752.000	65.000
753.000	85.000
754.000	61.000
755.000	88.000
756.000	67.000
757.000	69.000
758.000	79.000
759.000	68.000
760.000	79.000
761.000	87.000
762.000	87.000
763.000	79.000
764.000	83.000
765.000	65.000
766.000	72.000
767.000	80.000
768.000	67.000
769.000	61.000
770.000	79.000
771.000	78.000
772.000	73.000
773.000	86.000
774.000	86.000
775.000	88.000
776.000	88.000
777.000	85.000
778.000	73.000
779.000	99.000
780.000	110.000
781.000	99.000
782.000	98.000
783.000	115.000
784.000	122.000
785.000	118.000
786.000	116.000
787.000	130.000
788.000	136.000
789.000	127.000
790.000	137.000
791.000	125.000
792.000	125.000
793.000	165.000
794.000	140.000
795.000	126.000
796.000	140.000
797.000	150.000
798.000	137.000
799.000	140.000
800.000	126.000
801.000	146.000
802.000	137.000
803.000	134.000
804.000	165.000
805.000	146.000
806.000	161.000
807.000	160.000
808.000	165.000
809.000	187.000
810.000	209.000
811.000	223.000
812.000	242.000
813.000	236.000
814.000	238.000
815.000	269.000
816.000	314.000
817.000	316.000
818.000	298.000
819.000	299.000
820.000	338.000
821.000	321.000
822.000	278.000
823.000	268.000
824.000	261.000
825.000	268.000
826.000	227.000
827.000	226.000
828.000	202.000
829.000	202.000
830.000	165.000
831.000	174.000
832.000	139.000
833.000	147.000
834.000	134.000
835.000	148.000
836.000	124.000
837.000	119.000
838.000	134.000
839.000	131.000
840.000	121.000
841.000	124.000
842.000	116.000
843.000	122.000
844.000	130.000
845.000	122.000
846.000	137.000
847.000	114.000
848.000	126.000
849.000	136.000
850.000	113.000
851.000	127.000
852.000	110.000
853.000	113.000
854.000	118.000
855.000	114.000
856.000	120.000
857.000	137.000
858.000	124.000
859.000	144.000
860.000	116.000
861.000	120.000
862.000	112.000
863.000	123.000
864.000	131.000
865.000	106.000
866.000	109.000
867.000	112.000
868.000	130.000
869.000	127.000
870.000	105.000
871.000	117.000
872.000	105.000
873.000	128.000
874.000	125.000
875.000	117.000
876.000	110.000
877.000	105.000
878.000	118.000
879.000	109.000
880.000	108.000
881.000	114.000
882.000	109.000
883.000	127.000
884.000	126.000
885.000	132.000
886.000	126.000
887.000	129.000
888.000	108.000
889.000	104.000
890.000	122.000
891.000	143.000
892.000	131.000
893.000	132.000
894.000	127.000
895.000	151.000
896.000	135.000
897.000	163.000
898.000	116.000
899.000	155.000
900.000	132.000
901.000	162.000
902.000	141.000
903.000	135.000
904.000	146.000
905.000	158.000
906.000	153.000
907.000	145.000
908.000	173.000
909.000	137.000
910.000	157.000
911.000	174.000
912.000	167.000
913.000	156.000
914.000	157.000
915.000	155.000
916.000	159.000
917.000	178.000
918.000	186.000
919.000	166.000
920.000	167.000
921.000	165.000
922.000	193.000
923.000	175.000
924.000	168.000
925.000	170.000
926.000	169.000
927.000	206.000
928.000	201.000
929.000	193.000
930.000	197.000
931.000	213.000
932.000	220.000
933.000	227.000
934.000	223.000
935.000	212.000
936.000	209.000
937.000	250.000
938.000	230.000
939.000	211.000
940.000	269.000
941.000	251.000
942.000	263.000
943.000	247.000
944.000	267.000
945.000	259.000
946.000	231.000
947.000	269.000
948.000	246.000
949.000	248.000
950.000	252.000
951.000	224.000
952.000	233.000
953.000	204.000
954.000	203.000
955.000	202.000
956.000	179.000
957.000	163.000
958.000	174.000
959.000	180.000
960.000	182.000
961.000	170.000
962.000	165.000
963.000	170.000
964.000	172.000
965.000	192.000
966.000	180.000
967.000	169.000
968.000	200.000
969.000	191.000
970.000	186.000
971.000	179.000
972.000	188.000
973.000	178.000
974.000	184.000
975.000	169.000
976.000	159.000
977.000	163.000
978.000	174.000
979.000	167.000
980.000	169.000
981.000	169.000
982.000	162.000
983.000	156.000
984.000	170.000
985.000	153.000
986.000	149.000
987.000	154.000
988.000	132.000
989.000	147.000
990.000	168.000
991.000	122.000
992.000	153.000
993.000	118.000
994.000	126.000
995.000	144.000
996.000	151.000
997.000	140.000
998.000	140.000
999.000	114.000
1000.000	136.000
1001.000	116.000
1002.000	90.000
1003.000	134.000
1004.000	138.000
1005.000	146.000
1006.000	124.000
1007.000	116.000
1008.000	133.000
1009.000	128.000
1010.000	148.000
1011.000	140.000
1012.000	153.000
1013.000	126.000
1014.000	131.000
1015.000	117.000
1016.000	140.000
1017.000	144.000
1018.000	131.000
1019.000	149.000
1020.000	139.000
1021.000	151.000
1022.000	146.000
1023.000	114.000
1024.000	135.000
1025.000	164.000
1026.000	149.000
1027.000	145.000
1028.000	161.000
1029.000	146.000
1030.000	148.000
1031.000	148.000
1032.000	153.000
1033.000	152.000
1034.000	147.000
1035.000	126.000
1036.000	152.000
1037.000	160.000
1038.000	152.000
1039.000	158.000
1040.000	131.000
1041.000	141.000
1042.000	160.000
1043.000	142.000
1044.000	141.000
1045.000	135.000
1046.000	142.000
1047.000	151.000
1048.000	132.000
1049.000	147.000
1050.000	142.000
1051.000	164.000
1052.000	148.000
1053.000	164.000
1054.000	171.000
1055.000	163.000
1056.000	174.000
1057.000	168.000
1058.000	157.000
1059.000	180.000
1060.000	165.000
1061.000	155.000
1062.000	164.000
1063.000	169.000
1064.000	149.000
1065.000	152.000
1066.000	164.000
1067.000	171.000
1068.000	167.000
1069.000	167.000
1070.000	170.000
1071.000	144.000
1072.000	157.000
1073.000	144.000
1074.000	146.000
1075.000	153.000
1076.000	166.000
1077.000	142.000
1078.000	169.000
1079.000	151.000
1080.000	178.000
1081.000	157.000
1082.000	154.000
1083.000	140.000
1084.000	165.000
1085.000	158.000
1086.000	165.000
1087.000	155.000
1088.000	152.000
1089.000	170.000
1090.000	171.000
1091.000	173.000
1092.000	179.000
1093.000	155.000
1094.000	171.000
1095.000	166.000
1096.000	175.000
1097.000	182.000
1098.000	171.000
1099.000	185.000
1100.000	164.000
1101.000	179.000
1102.000	157.000
1103.000	179.000
1104.000	167.000
1105.000	160.000
1106.000	171.000
1107.000	192.000
1108.000	158.000
1109.000	187.000
1110.000	170.000
1111.000	152.000
1112.000	145.000
1113.000	174.000
1114.000	162.000
1115.000	159.000
1116.000	151.000
1117.000	186.000
1118.000	150.000
1119.000	167.000
1120.000	160.000
1121.000	167.000
1122.000	146.000
1123.000	184.000
1124.000	158.000
1125.000	179.000
1126.000	183.000
1127.000	155.000
1128.000	166.000
1129.000	151.000
1130.000	150.000
1131.000	183.000
1132.000	156.000
1133.000	176.000
1134.000	165.000
1135.000	145.000
1136.000	163.000
1137.000	152.000
1138.000	138.000
1139.000	141.000
1140.000	143.000
1141.000	182.000
1142.000	151.000
1143.000	165.000
1144.000	161.000
1145.000	167.000
1146.000	161.000
1147.000	166.000
1148.000	151.000
1149.000	178.000
1150.000	186.000
1151.000	176.000
1152.000	170.000
1153.000	184.000
1154.000	174.000
1155.000	170.000
1156.000	221.000
1157.000	187.000
