Date:	23-Sep-20		Time:	6:19 PM		Version no:	0.00		Project name:	55		Sample name:	222		Section name:	section		Position	288.745018	mm	E0	0.000000	keV	E1	1.000000	keV/channel	sample surface	7.652074	cm	Tube anode:	Mo		Tube voltage:	30	kV	Tube current:	30	mA	gain	15		std. database			resultfile	result		matrix element	11		sample thickness	1.000000		air passage	0.560000	cm	comments	in position		peaking_time	0.300000	m-sec	trigger_threshold	40.000000	V	mca_bin_width	2.000000	no:	number_mca_channels	2048.000000	no:	gap_time	2048.000000	m-sec	trigger_peaking_time	2048.000000	m-sec	GAINDAC	400		HIGHGAIN	400		TAURC	400		RCTAU	400		RCTAUFRAC	400		livetime	13.525825	seconds	runtime	15.000347	seconds	input_count_rate	49802.136167	cps	output_count_rate	44906.627827	cps	triggers	735452	seconds	events_in_run	659447	seconds	channel	content		1.000	0.000
2.000	0.000
3.000	0.000
4.000	0.000
5.000	0.000
6.000	0.000
7.000	0.000
8.000	0.000
9.000	0.000
10.000	0.000
11.000	0.000
12.000	0.000
13.000	0.000
14.000	0.000
15.000	0.000
16.000	0.000
17.000	0.000
18.000	0.000
19.000	0.000
20.000	0.000
21.000	0.000
22.000	0.000
23.000	0.000
24.000	0.000
25.000	0.000
26.000	0.000
27.000	0.000
28.000	0.000
29.000	0.000
30.000	0.000
31.000	0.000
32.000	0.000
33.000	1.000
34.000	2.000
35.000	0.000
36.000	1.000
37.000	0.000
38.000	0.000
39.000	0.000
40.000	0.000
41.000	0.000
42.000	0.000
43.000	0.000
44.000	1.000
45.000	0.000
46.000	0.000
47.000	0.000
48.000	1.000
49.000	3.000
50.000	1.000
51.000	2.000
52.000	4.000
53.000	2.000
54.000	5.000
55.000	4.000
56.000	8.000
57.000	9.000
58.000	8.000
59.000	14.000
60.000	28.000
61.000	24.000
62.000	31.000
63.000	30.000
64.000	30.000
65.000	26.000
66.000	34.000
67.000	32.000
68.000	24.000
69.000	30.000
70.000	27.000
71.000	24.000
72.000	17.000
73.000	19.000
74.000	26.000
75.000	23.000
76.000	28.000
77.000	31.000
78.000	37.000
79.000	15.000
80.000	29.000
81.000	27.000
82.000	25.000
83.000	38.000
84.000	23.000
85.000	31.000
86.000	32.000
87.000	27.000
88.000	25.000
89.000	30.000
90.000	29.000
91.000	24.000
92.000	26.000
93.000	21.000
94.000	22.000
95.000	24.000
96.000	19.000
97.000	24.000
98.000	23.000
99.000	24.000
100.000	25.000
101.000	20.000
102.000	21.000
103.000	26.000
104.000	24.000
105.000	13.000
106.000	17.000
107.000	26.000
108.000	22.000
109.000	21.000
110.000	21.000
111.000	22.000
112.000	15.000
113.000	18.000
114.000	20.000
115.000	20.000
116.000	27.000
117.000	21.000
118.000	23.000
119.000	23.000
120.000	16.000
121.000	19.000
122.000	22.000
123.000	19.000
124.000	12.000
125.000	16.000
126.000	14.000
127.000	14.000
128.000	14.000
129.000	16.000
130.000	14.000
131.000	15.000
132.000	14.000
133.000	27.000
134.000	14.000
135.000	16.000
136.000	12.000
137.000	17.000
138.000	17.000
139.000	19.000
140.000	22.000
141.000	23.000
142.000	17.000
143.000	20.000
144.000	20.000
145.000	31.000
146.000	19.000
147.000	29.000
148.000	20.000
149.000	26.000
150.000	21.000
151.000	17.000
152.000	15.000
153.000	20.000
154.000	8.000
155.000	12.000
156.000	12.000
157.000	16.000
158.000	16.000
159.000	16.000
160.000	13.000
161.000	10.000
162.000	17.000
163.000	15.000
164.000	14.000
165.000	15.000
166.000	25.000
167.000	18.000
168.000	36.000
169.000	24.000
170.000	31.000
171.000	37.000
172.000	26.000
173.000	32.000
174.000	23.000
175.000	21.000
176.000	24.000
177.000	24.000
178.000	22.000
179.000	37.000
180.000	44.000
181.000	30.000
182.000	49.000
183.000	69.000
184.000	86.000
185.000	125.000
186.000	159.000
187.000	177.000
188.000	214.000
189.000	270.000
190.000	332.000
191.000	319.000
192.000	285.000
193.000	275.000
194.000	265.000
195.000	161.000
196.000	160.000
197.000	96.000
198.000	75.000
199.000	42.000
200.000	34.000
201.000	30.000
202.000	17.000
203.000	23.000
204.000	15.000
205.000	14.000
206.000	13.000
207.000	11.000
208.000	16.000
209.000	15.000
210.000	18.000
211.000	16.000
212.000	20.000
213.000	21.000
214.000	22.000
215.000	30.000
216.000	33.000
217.000	30.000
218.000	37.000
219.000	51.000
220.000	48.000
221.000	57.000
222.000	56.000
223.000	88.000
224.000	68.000
225.000	53.000
226.000	48.000
227.000	43.000
228.000	48.000
229.000	36.000
230.000	24.000
231.000	26.000
232.000	27.000
233.000	15.000
234.000	18.000
235.000	15.000
236.000	17.000
237.000	17.000
238.000	21.000
239.000	9.000
240.000	10.000
241.000	10.000
242.000	20.000
243.000	12.000
244.000	13.000
245.000	20.000
246.000	21.000
247.000	16.000
248.000	38.000
249.000	47.000
250.000	72.000
251.000	72.000
252.000	100.000
253.000	129.000
254.000	131.000
255.000	169.000
256.000	197.000
257.000	176.000
258.000	182.000
259.000	176.000
260.000	151.000
261.000	138.000
262.000	106.000
263.000	80.000
264.000	75.000
265.000	56.000
266.000	28.000
267.000	20.000
268.000	25.000
269.000	18.000
270.000	39.000
271.000	29.000
272.000	22.000
273.000	28.000
274.000	38.000
275.000	31.000
276.000	43.000
277.000	36.000
278.000	33.000
279.000	34.000
280.000	44.000
281.000	46.000
282.000	33.000
283.000	45.000
284.000	46.000
285.000	55.000
286.000	72.000
287.000	71.000
288.000	81.000
289.000	100.000
290.000	91.000
291.000	81.000
292.000	81.000
293.000	73.000
294.000	60.000
295.000	69.000
296.000	42.000
297.000	28.000
298.000	32.000
299.000	27.000
300.000	28.000
301.000	24.000
302.000	28.000
303.000	18.000
304.000	26.000
305.000	31.000
306.000	26.000
307.000	28.000
308.000	37.000
309.000	31.000
310.000	39.000
311.000	41.000
312.000	40.000
313.000	33.000
314.000	68.000
315.000	49.000
316.000	47.000
317.000	62.000
318.000	84.000
319.000	82.000
320.000	114.000
321.000	120.000
322.000	110.000
323.000	142.000
324.000	149.000
325.000	141.000
326.000	123.000
327.000	135.000
328.000	113.000
329.000	111.000
330.000	67.000
331.000	72.000
332.000	70.000
333.000	43.000
334.000	41.000
335.000	38.000
336.000	55.000
337.000	32.000
338.000	42.000
339.000	47.000
340.000	46.000
341.000	60.000
342.000	89.000
343.000	81.000
344.000	141.000
345.000	174.000
346.000	247.000
347.000	365.000
348.000	606.000
349.000	948.000
350.000	1533.000
351.000	2390.000
352.000	3633.000
353.000	5300.000
354.000	7484.000
355.000	10411.000
356.000	13513.000
357.000	17122.000
358.000	20674.000
359.000	23411.000
360.000	25563.000
361.000	26518.000
362.000	26420.000
363.000	25449.000
364.000	22879.000
365.000	19517.000
366.000	16021.000
367.000	12807.000
368.000	9511.000
369.000	6861.000
370.000	4778.000
371.000	2994.000
372.000	1932.000
373.000	1208.000
374.000	795.000
375.000	472.000
376.000	314.000
377.000	241.000
378.000	200.000
379.000	244.000
380.000	299.000
381.000	329.000
382.000	473.000
383.000	650.000
384.000	913.000
385.000	1251.000
386.000	1523.000
387.000	2054.000
388.000	2497.000
389.000	3022.000
390.000	3287.000
391.000	3747.000
392.000	3867.000
393.000	3966.000
394.000	3900.000
395.000	3598.000
396.000	3142.000
397.000	2769.000
398.000	2202.000
399.000	1757.000
400.000	1310.000
401.000	887.000
402.000	709.000
403.000	467.000
404.000	285.000
405.000	179.000
406.000	85.000
407.000	69.000
408.000	34.000
409.000	18.000
410.000	19.000
411.000	21.000
412.000	12.000
413.000	4.000
414.000	8.000
415.000	12.000
416.000	9.000
417.000	7.000
418.000	9.000
419.000	6.000
420.000	6.000
421.000	6.000
422.000	6.000
423.000	13.000
424.000	5.000
425.000	6.000
426.000	8.000
427.000	10.000
428.000	9.000
429.000	13.000
430.000	20.000
431.000	15.000
432.000	22.000
433.000	30.000
434.000	32.000
435.000	40.000
436.000	62.000
437.000	54.000
438.000	71.000
439.000	80.000
440.000	86.000
441.000	80.000
442.000	93.000
443.000	65.000
444.000	71.000
445.000	77.000
446.000	48.000
447.000	39.000
448.000	47.000
449.000	39.000
450.000	30.000
451.000	20.000
452.000	13.000
453.000	13.000
454.000	14.000
455.000	17.000
456.000	14.000
457.000	13.000
458.000	15.000
459.000	14.000
460.000	19.000
461.000	14.000
462.000	12.000
463.000	15.000
464.000	19.000
465.000	14.000
466.000	16.000
467.000	11.000
468.000	5.000
469.000	10.000
470.000	17.000
471.000	5.000
472.000	13.000
473.000	18.000
474.000	11.000
475.000	9.000
476.000	16.000
477.000	23.000
478.000	19.000
479.000	21.000
480.000	15.000
481.000	22.000
482.000	24.000
483.000	20.000
484.000	27.000
485.000	22.000
486.000	26.000
487.000	24.000
488.000	22.000
489.000	12.000
490.000	18.000
491.000	11.000
492.000	11.000
493.000	17.000
494.000	11.000
495.000	18.000
496.000	15.000
497.000	19.000
498.000	13.000
499.000	14.000
500.000	12.000
501.000	10.000
502.000	15.000
503.000	14.000
504.000	21.000
505.000	10.000
506.000	17.000
507.000	18.000
508.000	20.000
509.000	23.000
510.000	16.000
511.000	21.000
512.000	21.000
513.000	18.000
514.000	19.000
515.000	16.000
516.000	10.000
517.000	20.000
518.000	20.000
519.000	17.000
520.000	23.000
521.000	26.000
522.000	24.000
523.000	28.000
524.000	23.000
525.000	29.000
526.000	28.000
527.000	26.000
528.000	33.000
529.000	36.000
530.000	35.000
531.000	34.000
532.000	38.000
533.000	28.000
534.000	33.000
535.000	31.000
536.000	27.000
537.000	18.000
538.000	24.000
539.000	15.000
540.000	18.000
541.000	17.000
542.000	14.000
543.000	19.000
544.000	16.000
545.000	21.000
546.000	21.000
547.000	19.000
548.000	24.000
549.000	21.000
550.000	29.000
551.000	21.000
552.000	25.000
553.000	28.000
554.000	20.000
555.000	20.000
556.000	25.000
557.000	26.000
558.000	22.000
559.000	28.000
560.000	23.000
561.000	29.000
562.000	20.000
563.000	35.000
564.000	36.000
565.000	40.000
566.000	34.000
567.000	45.000
568.000	33.000
569.000	52.000
570.000	53.000
571.000	56.000
572.000	55.000
573.000	55.000
574.000	61.000
575.000	50.000
576.000	81.000
577.000	53.000
578.000	74.000
579.000	58.000
580.000	48.000
581.000	64.000
582.000	48.000
583.000	34.000
584.000	35.000
585.000	36.000
586.000	34.000
587.000	33.000
588.000	30.000
589.000	23.000
590.000	27.000
591.000	21.000
592.000	30.000
593.000	20.000
594.000	26.000
595.000	27.000
596.000	32.000
597.000	19.000
598.000	22.000
599.000	26.000
600.000	26.000
601.000	21.000
602.000	21.000
603.000	17.000
604.000	38.000
605.000	30.000
606.000	32.000
607.000	38.000
608.000	61.000
609.000	62.000
610.000	87.000
611.000	110.000
612.000	140.000
613.000	189.000
614.000	258.000
615.000	343.000
616.000	455.000
617.000	562.000
618.000	689.000
619.000	867.000
620.000	1075.000
621.000	1231.000
622.000	1263.000
623.000	1424.000
624.000	1607.000
625.000	1561.000
626.000	1596.000
627.000	1484.000
628.000	1464.000
629.000	1283.000
630.000	1170.000
631.000	1004.000
632.000	791.000
633.000	651.000
634.000	530.000
635.000	446.000
636.000	313.000
637.000	253.000
638.000	198.000
639.000	154.000
640.000	105.000
641.000	86.000
642.000	80.000
643.000	62.000
644.000	54.000
645.000	54.000
646.000	60.000
647.000	44.000
648.000	47.000
649.000	33.000
650.000	41.000
651.000	51.000
652.000	45.000
653.000	45.000
654.000	45.000
655.000	43.000
656.000	47.000
657.000	43.000
658.000	46.000
659.000	42.000
660.000	45.000
661.000	59.000
662.000	53.000
663.000	45.000
664.000	51.000
665.000	57.000
666.000	45.000
667.000	42.000
668.000	60.000
669.000	73.000
670.000	50.000
671.000	67.000
672.000	65.000
673.000	73.000
674.000	75.000
675.000	74.000
676.000	91.000
677.000	82.000
678.000	95.000
679.000	121.000
680.000	135.000
681.000	135.000
682.000	204.000
683.000	198.000
684.000	227.000
685.000	227.000
686.000	284.000
687.000	303.000
688.000	311.000
689.000	324.000
690.000	289.000
691.000	263.000
692.000	288.000
693.000	265.000
694.000	202.000
695.000	205.000
696.000	225.000
697.000	152.000
698.000	153.000
699.000	141.000
700.000	106.000
701.000	105.000
702.000	81.000
703.000	77.000
704.000	57.000
705.000	61.000
706.000	58.000
707.000	60.000
708.000	57.000
709.000	57.000
710.000	60.000
711.000	67.000
712.000	71.000
713.000	61.000
714.000	79.000
715.000	68.000
716.000	77.000
717.000	81.000
718.000	80.000
719.000	94.000
720.000	92.000
721.000	92.000
722.000	93.000
723.000	106.000
724.000	88.000
725.000	103.000
726.000	98.000
727.000	100.000
728.000	88.000
729.000	96.000
730.000	75.000
731.000	92.000
732.000	78.000
733.000	85.000
734.000	68.000
735.000	71.000
736.000	53.000
737.000	70.000
738.000	79.000
739.000	76.000
740.000	62.000
741.000	64.000
742.000	67.000
743.000	63.000
744.000	60.000
745.000	72.000
746.000	62.000
747.000	62.000
748.000	62.000
749.000	70.000
750.000	83.000
751.000	68.000
752.000	70.000
753.000	59.000
754.000	67.000
755.000	61.000
756.000	82.000
757.000	76.000
758.000	79.000
759.000	62.000
760.000	67.000
761.000	66.000
762.000	87.000
763.000	61.000
764.000	68.000
765.000	62.000
766.000	74.000
767.000	83.000
768.000	75.000
769.000	93.000
770.000	87.000
771.000	79.000
772.000	55.000
773.000	75.000
774.000	83.000
775.000	80.000
776.000	93.000
777.000	92.000
778.000	86.000
779.000	115.000
780.000	96.000
781.000	110.000
782.000	105.000
783.000	99.000
784.000	109.000
785.000	120.000
786.000	119.000
787.000	122.000
788.000	131.000
789.000	119.000
790.000	121.000
791.000	118.000
792.000	112.000
793.000	137.000
794.000	129.000
795.000	128.000
796.000	132.000
797.000	134.000
798.000	109.000
799.000	121.000
800.000	139.000
801.000	144.000
802.000	126.000
803.000	158.000
804.000	135.000
805.000	153.000
806.000	175.000
807.000	149.000
808.000	180.000
809.000	166.000
810.000	202.000
811.000	222.000
812.000	224.000
813.000	221.000
814.000	269.000
815.000	268.000
816.000	296.000
817.000	307.000
818.000	299.000
819.000	318.000
820.000	334.000
821.000	306.000
822.000	283.000
823.000	280.000
824.000	292.000
825.000	253.000
826.000	260.000
827.000	229.000
828.000	193.000
829.000	187.000
830.000	152.000
831.000	144.000
832.000	149.000
833.000	110.000
834.000	123.000
835.000	134.000
836.000	117.000
837.000	106.000
838.000	96.000
839.000	105.000
840.000	109.000
841.000	124.000
842.000	112.000
843.000	112.000
844.000	150.000
845.000	116.000
846.000	119.000
847.000	88.000
848.000	103.000
849.000	105.000
850.000	114.000
851.000	85.000
852.000	120.000
853.000	109.000
854.000	109.000
855.000	126.000
856.000	123.000
857.000	93.000
858.000	113.000
859.000	120.000
860.000	112.000
861.000	109.000
862.000	105.000
863.000	116.000
864.000	120.000
865.000	109.000
866.000	95.000
867.000	121.000
868.000	115.000
869.000	104.000
870.000	108.000
871.000	117.000
872.000	99.000
873.000	104.000
874.000	118.000
875.000	120.000
876.000	117.000
877.000	114.000
878.000	118.000
879.000	106.000
880.000	110.000
881.000	88.000
882.000	133.000
883.000	119.000
884.000	98.000
885.000	102.000
886.000	116.000
887.000	105.000
888.000	123.000
889.000	116.000
890.000	121.000
891.000	116.000
892.000	121.000
893.000	110.000
894.000	120.000
895.000	130.000
896.000	115.000
897.000	110.000
898.000	124.000
899.000	147.000
900.000	135.000
901.000	136.000
902.000	148.000
903.000	142.000
904.000	134.000
905.000	147.000
906.000	143.000
907.000	154.000
908.000	145.000
909.000	145.000
910.000	150.000
911.000	173.000
912.000	164.000
913.000	145.000
914.000	185.000
915.000	171.000
916.000	166.000
917.000	170.000
918.000	169.000
919.000	150.000
920.000	176.000
921.000	153.000
922.000	176.000
923.000	193.000
924.000	183.000
925.000	185.000
926.000	211.000
927.000	192.000
928.000	194.000
929.000	201.000
930.000	168.000
931.000	206.000
932.000	192.000
933.000	216.000
934.000	197.000
935.000	213.000
936.000	229.000
937.000	224.000
938.000	231.000
939.000	264.000
940.000	264.000
941.000	250.000
942.000	255.000
943.000	258.000
944.000	220.000
945.000	263.000
946.000	275.000
947.000	257.000
948.000	229.000
949.000	242.000
950.000	209.000
951.000	227.000
952.000	202.000
953.000	200.000
954.000	189.000
955.000	188.000
956.000	179.000
957.000	183.000
958.000	175.000
959.000	174.000
960.000	194.000
961.000	173.000
962.000	173.000
963.000	209.000
964.000	172.000
965.000	186.000
966.000	179.000
967.000	180.000
968.000	186.000
969.000	180.000
970.000	203.000
971.000	176.000
972.000	181.000
973.000	183.000
974.000	174.000
975.000	178.000
976.000	187.000
977.000	167.000
978.000	158.000
979.000	170.000
980.000	139.000
981.000	173.000
982.000	144.000
983.000	142.000
984.000	146.000
985.000	145.000
986.000	148.000
987.000	144.000
988.000	137.000
989.000	141.000
990.000	131.000
991.000	140.000
992.000	136.000
993.000	138.000
994.000	125.000
995.000	133.000
996.000	144.000
997.000	145.000
998.000	127.000
999.000	113.000
1000.000	129.000
1001.000	140.000
1002.000	110.000
1003.000	130.000
1004.000	112.000
1005.000	132.000
1006.000	126.000
1007.000	126.000
1008.000	132.000
1009.000	135.000
1010.000	140.000
1011.000	137.000
1012.000	140.000
1013.000	142.000
1014.000	132.000
1015.000	129.000
1016.000	104.000
1017.000	152.000
1018.000	120.000
1019.000	133.000
1020.000	120.000
1021.000	136.000
1022.000	139.000
1023.000	133.000
1024.000	150.000
1025.000	123.000
1026.000	117.000
1027.000	134.000
1028.000	144.000
1029.000	128.000
1030.000	154.000
1031.000	148.000
1032.000	165.000
1033.000	151.000
1034.000	149.000
1035.000	120.000
1036.000	131.000
1037.000	141.000
1038.000	146.000
1039.000	145.000
1040.000	146.000
1041.000	147.000
1042.000	139.000
1043.000	167.000
1044.000	141.000
1045.000	137.000
1046.000	159.000
1047.000	143.000
1048.000	141.000
1049.000	145.000
1050.000	151.000
1051.000	142.000
1052.000	152.000
1053.000	137.000
1054.000	158.000
1055.000	133.000
1056.000	167.000
1057.000	142.000
1058.000	137.000
1059.000	154.000
1060.000	162.000
1061.000	157.000
1062.000	145.000
1063.000	143.000
1064.000	149.000
1065.000	146.000
1066.000	153.000
1067.000	166.000
1068.000	159.000
1069.000	143.000
1070.000	139.000
1071.000	159.000
1072.000	138.000
1073.000	161.000
1074.000	147.000
1075.000	158.000
1076.000	138.000
1077.000	163.000
1078.000	140.000
1079.000	166.000
1080.000	147.000
1081.000	144.000
1082.000	147.000
1083.000	153.000
1084.000	145.000
1085.000	158.000
1086.000	161.000
1087.000	140.000
1088.000	177.000
1089.000	182.000
1090.000	172.000
1091.000	172.000
1092.000	170.000
1093.000	161.000
1094.000	145.000
1095.000	184.000
1096.000	189.000
1097.000	165.000
1098.000	177.000
1099.000	160.000
1100.000	160.000
1101.000	171.000
1102.000	160.000
1103.000	159.000
1104.000	135.000
1105.000	151.000
1106.000	171.000
1107.000	158.000
1108.000	170.000
1109.000	167.000
1110.000	179.000
1111.000	156.000
1112.000	179.000
1113.000	148.000
1114.000	187.000
1115.000	171.000
1116.000	163.000
1117.000	164.000
1118.000	127.000
1119.000	152.000
1120.000	158.000
1121.000	154.000
1122.000	156.000
1123.000	139.000
1124.000	150.000
1125.000	149.000
1126.000	166.000
1127.000	141.000
1128.000	153.000
1129.000	162.000
1130.000	171.000
1131.000	162.000
1132.000	155.000
1133.000	153.000
1134.000	145.000
1135.000	147.000
1136.000	170.000
1137.000	157.000
1138.000	173.000
1139.000	152.000
1140.000	131.000
1141.000	170.000
1142.000	179.000
1143.000	170.000
1144.000	159.000
1145.000	163.000
1146.000	173.000
1147.000	141.000
1148.000	169.000
1149.000	179.000
1150.000	147.000
1151.000	187.000
1152.000	153.000
1153.000	178.000
1154.000	150.000
1155.000	187.000
1156.000	206.000
1157.000	176.000
1158.000	177.000
1159.000	185.000
1160.000	185.000
