Date:	23-Sep-20		Time:	6:46 PM		Version no:	0.00		Project name:	55		Sample name:	222		Section name:	section		Position	392.745018	mm	E0	0.000000	keV	E1	1.000000	keV/channel	sample surface	7.797037	cm	Tube anode:	Mo		Tube voltage:	30	kV	Tube current:	30	mA	gain	15		std. database			resultfile	result		matrix element	11		sample thickness	1.000000		air passage	0.560000	cm	comments	in position		peaking_time	0.300000	m-sec	trigger_threshold	40.000000	V	mca_bin_width	2.000000	no:	number_mca_channels	2048.000000	no:	gap_time	2048.000000	m-sec	trigger_peaking_time	2048.000000	m-sec	GAINDAC	400		HIGHGAIN	400		TAURC	400		RCTAU	400		RCTAUFRAC	400		livetime	13.489059	seconds	runtime	15.000349	seconds	input_count_rate	48625.704044	cps	output_count_rate	43726.647836	cps	triggers	718030	seconds	events_in_run	641469	seconds	channel	content		1.000	0.000
2.000	0.000
3.000	0.000
4.000	0.000
5.000	0.000
6.000	0.000
7.000	0.000
8.000	0.000
9.000	0.000
10.000	0.000
11.000	0.000
12.000	0.000
13.000	0.000
14.000	0.000
15.000	0.000
16.000	0.000
17.000	0.000
18.000	0.000
19.000	0.000
20.000	0.000
21.000	0.000
22.000	0.000
23.000	0.000
24.000	0.000
25.000	0.000
26.000	0.000
27.000	0.000
28.000	0.000
29.000	0.000
30.000	0.000
31.000	1.000
32.000	0.000
33.000	0.000
34.000	0.000
35.000	0.000
36.000	0.000
37.000	0.000
38.000	0.000
39.000	1.000
40.000	1.000
41.000	1.000
42.000	1.000
43.000	2.000
44.000	0.000
45.000	0.000
46.000	0.000
47.000	0.000
48.000	1.000
49.000	1.000
50.000	1.000
51.000	0.000
52.000	0.000
53.000	3.000
54.000	1.000
55.000	5.000
56.000	7.000
57.000	14.000
58.000	14.000
59.000	16.000
60.000	26.000
61.000	24.000
62.000	25.000
63.000	25.000
64.000	33.000
65.000	37.000
66.000	32.000
67.000	16.000
68.000	27.000
69.000	27.000
70.000	30.000
71.000	30.000
72.000	33.000
73.000	17.000
74.000	24.000
75.000	36.000
76.000	24.000
77.000	26.000
78.000	25.000
79.000	23.000
80.000	36.000
81.000	23.000
82.000	23.000
83.000	24.000
84.000	24.000
85.000	20.000
86.000	27.000
87.000	33.000
88.000	27.000
89.000	24.000
90.000	30.000
91.000	21.000
92.000	17.000
93.000	20.000
94.000	16.000
95.000	23.000
96.000	14.000
97.000	25.000
98.000	27.000
99.000	19.000
100.000	21.000
101.000	17.000
102.000	31.000
103.000	19.000
104.000	23.000
105.000	21.000
106.000	18.000
107.000	17.000
108.000	16.000
109.000	14.000
110.000	22.000
111.000	23.000
112.000	16.000
113.000	18.000
114.000	16.000
115.000	14.000
116.000	20.000
117.000	23.000
118.000	18.000
119.000	9.000
120.000	14.000
121.000	18.000
122.000	16.000
123.000	22.000
124.000	13.000
125.000	11.000
126.000	16.000
127.000	19.000
128.000	17.000
129.000	15.000
130.000	14.000
131.000	13.000
132.000	18.000
133.000	9.000
134.000	13.000
135.000	18.000
136.000	15.000
137.000	13.000
138.000	18.000
139.000	13.000
140.000	11.000
141.000	22.000
142.000	17.000
143.000	29.000
144.000	33.000
145.000	18.000
146.000	26.000
147.000	29.000
148.000	25.000
149.000	17.000
150.000	13.000
151.000	18.000
152.000	17.000
153.000	17.000
154.000	18.000
155.000	20.000
156.000	20.000
157.000	16.000
158.000	19.000
159.000	14.000
160.000	8.000
161.000	13.000
162.000	23.000
163.000	10.000
164.000	18.000
165.000	26.000
166.000	29.000
167.000	34.000
168.000	39.000
169.000	39.000
170.000	48.000
171.000	46.000
172.000	51.000
173.000	44.000
174.000	34.000
175.000	31.000
176.000	28.000
177.000	28.000
178.000	27.000
179.000	26.000
180.000	40.000
181.000	37.000
182.000	51.000
183.000	45.000
184.000	65.000
185.000	97.000
186.000	136.000
187.000	184.000
188.000	220.000
189.000	263.000
190.000	241.000
191.000	259.000
192.000	276.000
193.000	262.000
194.000	201.000
195.000	141.000
196.000	120.000
197.000	85.000
198.000	58.000
199.000	41.000
200.000	36.000
201.000	20.000
202.000	25.000
203.000	13.000
204.000	19.000
205.000	18.000
206.000	17.000
207.000	25.000
208.000	14.000
209.000	17.000
210.000	21.000
211.000	26.000
212.000	24.000
213.000	19.000
214.000	23.000
215.000	28.000
216.000	26.000
217.000	31.000
218.000	42.000
219.000	37.000
220.000	45.000
221.000	57.000
222.000	51.000
223.000	54.000
224.000	54.000
225.000	54.000
226.000	49.000
227.000	40.000
228.000	38.000
229.000	13.000
230.000	24.000
231.000	17.000
232.000	19.000
233.000	19.000
234.000	13.000
235.000	19.000
236.000	11.000
237.000	15.000
238.000	10.000
239.000	17.000
240.000	17.000
241.000	16.000
242.000	18.000
243.000	22.000
244.000	15.000
245.000	19.000
246.000	20.000
247.000	19.000
248.000	27.000
249.000	40.000
250.000	57.000
251.000	89.000
252.000	112.000
253.000	120.000
254.000	173.000
255.000	173.000
256.000	193.000
257.000	184.000
258.000	193.000
259.000	170.000
260.000	174.000
261.000	133.000
262.000	104.000
263.000	78.000
264.000	62.000
265.000	47.000
266.000	28.000
267.000	31.000
268.000	27.000
269.000	19.000
270.000	26.000
271.000	21.000
272.000	29.000
273.000	26.000
274.000	39.000
275.000	29.000
276.000	29.000
277.000	45.000
278.000	38.000
279.000	36.000
280.000	29.000
281.000	34.000
282.000	29.000
283.000	36.000
284.000	38.000
285.000	44.000
286.000	38.000
287.000	69.000
288.000	76.000
289.000	94.000
290.000	92.000
291.000	86.000
292.000	69.000
293.000	69.000
294.000	63.000
295.000	54.000
296.000	42.000
297.000	38.000
298.000	27.000
299.000	33.000
300.000	26.000
301.000	22.000
302.000	24.000
303.000	27.000
304.000	34.000
305.000	29.000
306.000	32.000
307.000	40.000
308.000	31.000
309.000	37.000
310.000	24.000
311.000	43.000
312.000	49.000
313.000	34.000
314.000	49.000
315.000	60.000
316.000	66.000
317.000	84.000
318.000	100.000
319.000	120.000
320.000	124.000
321.000	201.000
322.000	182.000
323.000	234.000
324.000	209.000
325.000	234.000
326.000	219.000
327.000	227.000
328.000	159.000
329.000	158.000
330.000	109.000
331.000	84.000
332.000	78.000
333.000	51.000
334.000	49.000
335.000	39.000
336.000	31.000
337.000	36.000
338.000	40.000
339.000	36.000
340.000	38.000
341.000	62.000
342.000	83.000
343.000	85.000
344.000	105.000
345.000	174.000
346.000	241.000
347.000	348.000
348.000	547.000
349.000	837.000
350.000	1312.000
351.000	2043.000
352.000	3090.000
353.000	4665.000
354.000	6625.000
355.000	9073.000
356.000	11917.000
357.000	14814.000
358.000	17912.000
359.000	20620.000
360.000	22201.000
361.000	23202.000
362.000	23151.000
363.000	21624.000
364.000	19633.000
365.000	17018.000
366.000	13903.000
367.000	11026.000
368.000	8290.000
369.000	5774.000
370.000	4006.000
371.000	2695.000
372.000	1726.000
373.000	1025.000
374.000	640.000
375.000	414.000
376.000	280.000
377.000	201.000
378.000	206.000
379.000	182.000
380.000	234.000
381.000	303.000
382.000	402.000
383.000	651.000
384.000	761.000
385.000	1024.000
386.000	1320.000
387.000	1739.000
388.000	2180.000
389.000	2506.000
390.000	3011.000
391.000	3225.000
392.000	3365.000
393.000	3414.000
394.000	3400.000
395.000	3171.000
396.000	2756.000
397.000	2358.000
398.000	1986.000
399.000	1543.000
400.000	1133.000
401.000	793.000
402.000	519.000
403.000	388.000
404.000	225.000
405.000	138.000
406.000	96.000
407.000	48.000
408.000	32.000
409.000	23.000
410.000	19.000
411.000	9.000
412.000	11.000
413.000	9.000
414.000	8.000
415.000	13.000
416.000	11.000
417.000	5.000
418.000	5.000
419.000	12.000
420.000	9.000
421.000	6.000
422.000	9.000
423.000	9.000
424.000	12.000
425.000	8.000
426.000	9.000
427.000	13.000
428.000	19.000
429.000	16.000
430.000	16.000
431.000	37.000
432.000	39.000
433.000	51.000
434.000	50.000
435.000	81.000
436.000	92.000
437.000	107.000
438.000	114.000
439.000	133.000
440.000	139.000
441.000	168.000
442.000	149.000
443.000	137.000
444.000	134.000
445.000	109.000
446.000	99.000
447.000	83.000
448.000	77.000
449.000	57.000
450.000	42.000
451.000	33.000
452.000	29.000
453.000	32.000
454.000	35.000
455.000	22.000
456.000	8.000
457.000	20.000
458.000	24.000
459.000	18.000
460.000	19.000
461.000	17.000
462.000	16.000
463.000	18.000
464.000	13.000
465.000	8.000
466.000	16.000
467.000	17.000
468.000	6.000
469.000	12.000
470.000	11.000
471.000	16.000
472.000	20.000
473.000	23.000
474.000	21.000
475.000	13.000
476.000	26.000
477.000	32.000
478.000	30.000
479.000	32.000
480.000	42.000
481.000	43.000
482.000	34.000
483.000	36.000
484.000	33.000
485.000	29.000
486.000	41.000
487.000	30.000
488.000	29.000
489.000	26.000
490.000	24.000
491.000	20.000
492.000	26.000
493.000	19.000
494.000	20.000
495.000	13.000
496.000	11.000
497.000	11.000
498.000	13.000
499.000	12.000
500.000	18.000
501.000	14.000
502.000	13.000
503.000	17.000
504.000	14.000
505.000	21.000
506.000	16.000
507.000	13.000
508.000	20.000
509.000	13.000
510.000	15.000
511.000	15.000
512.000	24.000
513.000	19.000
514.000	19.000
515.000	29.000
516.000	18.000
517.000	17.000
518.000	29.000
519.000	23.000
520.000	20.000
521.000	22.000
522.000	22.000
523.000	31.000
524.000	31.000
525.000	26.000
526.000	31.000
527.000	35.000
528.000	44.000
529.000	43.000
530.000	46.000
531.000	41.000
532.000	46.000
533.000	33.000
534.000	44.000
535.000	25.000
536.000	34.000
537.000	24.000
538.000	24.000
539.000	23.000
540.000	21.000
541.000	30.000
542.000	19.000
543.000	20.000
544.000	21.000
545.000	15.000
546.000	26.000
547.000	26.000
548.000	19.000
549.000	19.000
550.000	19.000
551.000	31.000
552.000	16.000
553.000	35.000
554.000	21.000
555.000	23.000
556.000	23.000
557.000	24.000
558.000	32.000
559.000	38.000
560.000	32.000
561.000	28.000
562.000	40.000
563.000	20.000
564.000	37.000
565.000	45.000
566.000	40.000
567.000	48.000
568.000	50.000
569.000	55.000
570.000	68.000
571.000	74.000
572.000	79.000
573.000	88.000
574.000	90.000
575.000	91.000
576.000	89.000
577.000	117.000
578.000	86.000
579.000	96.000
580.000	80.000
581.000	73.000
582.000	55.000
583.000	58.000
584.000	54.000
585.000	46.000
586.000	39.000
587.000	41.000
588.000	31.000
589.000	34.000
590.000	32.000
591.000	32.000
592.000	28.000
593.000	27.000
594.000	20.000
595.000	31.000
596.000	31.000
597.000	30.000
598.000	21.000
599.000	25.000
600.000	31.000
601.000	29.000
602.000	28.000
603.000	28.000
604.000	38.000
605.000	36.000
606.000	60.000
607.000	56.000
608.000	73.000
609.000	117.000
610.000	120.000
611.000	199.000
612.000	259.000
613.000	368.000
614.000	479.000
615.000	617.000
616.000	905.000
617.000	1142.000
618.000	1355.000
619.000	1591.000
620.000	2051.000
621.000	2369.000
622.000	2447.000
623.000	2811.000
624.000	2926.000
625.000	2979.000
626.000	2894.000
627.000	2863.000
628.000	2658.000
629.000	2459.000
630.000	2225.000
631.000	1910.000
632.000	1582.000
633.000	1277.000
634.000	984.000
635.000	731.000
636.000	542.000
637.000	417.000
638.000	295.000
639.000	246.000
640.000	184.000
641.000	117.000
642.000	93.000
643.000	83.000
644.000	73.000
645.000	60.000
646.000	53.000
647.000	58.000
648.000	53.000
649.000	61.000
650.000	57.000
651.000	39.000
652.000	49.000
653.000	60.000
654.000	40.000
655.000	49.000
656.000	63.000
657.000	45.000
658.000	61.000
659.000	52.000
660.000	52.000
661.000	51.000
662.000	54.000
663.000	60.000
664.000	59.000
665.000	58.000
666.000	66.000
667.000	59.000
668.000	74.000
669.000	66.000
670.000	68.000
671.000	67.000
672.000	68.000
673.000	97.000
674.000	79.000
675.000	120.000
676.000	108.000
677.000	131.000
678.000	175.000
679.000	200.000
680.000	215.000
681.000	226.000
682.000	320.000
683.000	346.000
684.000	393.000
685.000	434.000
686.000	473.000
687.000	466.000
688.000	549.000
689.000	535.000
690.000	535.000
691.000	528.000
692.000	497.000
693.000	464.000
694.000	406.000
695.000	357.000
696.000	304.000
697.000	259.000
698.000	234.000
699.000	202.000
700.000	124.000
701.000	121.000
702.000	115.000
703.000	94.000
704.000	77.000
705.000	64.000
706.000	73.000
707.000	72.000
708.000	66.000
709.000	66.000
710.000	53.000
711.000	70.000
712.000	69.000
713.000	65.000
714.000	70.000
715.000	65.000
716.000	79.000
717.000	69.000
718.000	66.000
719.000	69.000
720.000	98.000
721.000	85.000
722.000	94.000
723.000	84.000
724.000	85.000
725.000	102.000
726.000	98.000
727.000	110.000
728.000	68.000
729.000	85.000
730.000	98.000
731.000	81.000
732.000	95.000
733.000	97.000
734.000	96.000
735.000	82.000
736.000	82.000
737.000	85.000
738.000	86.000
739.000	79.000
740.000	71.000
741.000	77.000
742.000	67.000
743.000	74.000
744.000	63.000
745.000	60.000
746.000	75.000
747.000	84.000
748.000	64.000
749.000	85.000
750.000	64.000
751.000	62.000
752.000	64.000
753.000	59.000
754.000	64.000
755.000	63.000
756.000	72.000
757.000	68.000
758.000	83.000
759.000	72.000
760.000	66.000
761.000	72.000
762.000	80.000
763.000	81.000
764.000	74.000
765.000	62.000
766.000	73.000
767.000	82.000
768.000	76.000
769.000	82.000
770.000	57.000
771.000	80.000
772.000	87.000
773.000	75.000
774.000	90.000
775.000	77.000
776.000	94.000
777.000	97.000
778.000	104.000
779.000	94.000
780.000	100.000
781.000	102.000
782.000	97.000
783.000	106.000
784.000	136.000
785.000	123.000
786.000	116.000
787.000	117.000
788.000	126.000
789.000	125.000
790.000	153.000
791.000	132.000
792.000	120.000
793.000	150.000
794.000	166.000
795.000	133.000
796.000	130.000
797.000	127.000
798.000	117.000
799.000	132.000
800.000	153.000
801.000	134.000
802.000	145.000
803.000	152.000
804.000	143.000
805.000	150.000
806.000	147.000
807.000	161.000
808.000	179.000
809.000	175.000
810.000	182.000
811.000	181.000
812.000	226.000
813.000	254.000
814.000	245.000
815.000	290.000
816.000	251.000
817.000	282.000
818.000	288.000
819.000	320.000
820.000	299.000
821.000	292.000
822.000	320.000
823.000	306.000
824.000	264.000
825.000	222.000
826.000	259.000
827.000	214.000
828.000	204.000
829.000	182.000
830.000	160.000
831.000	155.000
832.000	144.000
833.000	139.000
834.000	128.000
835.000	132.000
836.000	133.000
837.000	143.000
838.000	128.000
839.000	111.000
840.000	112.000
841.000	127.000
842.000	128.000
843.000	100.000
844.000	122.000
845.000	150.000
846.000	116.000
847.000	123.000
848.000	108.000
849.000	136.000
850.000	123.000
851.000	126.000
852.000	121.000
853.000	137.000
854.000	127.000
855.000	132.000
856.000	107.000
857.000	113.000
858.000	134.000
859.000	125.000
860.000	106.000
861.000	112.000
862.000	105.000
863.000	96.000
864.000	103.000
865.000	111.000
866.000	124.000
867.000	142.000
868.000	114.000
869.000	115.000
870.000	114.000
871.000	123.000
872.000	122.000
873.000	123.000
874.000	101.000
875.000	120.000
876.000	118.000
877.000	113.000
878.000	110.000
879.000	119.000
880.000	118.000
881.000	105.000
882.000	119.000
883.000	125.000
884.000	113.000
885.000	132.000
886.000	109.000
887.000	118.000
888.000	109.000
889.000	108.000
890.000	123.000
891.000	132.000
892.000	144.000
893.000	124.000
894.000	138.000
895.000	122.000
896.000	116.000
897.000	131.000
898.000	122.000
899.000	142.000
900.000	150.000
901.000	141.000
902.000	133.000
903.000	166.000
904.000	162.000
905.000	144.000
906.000	133.000
907.000	159.000
908.000	154.000
909.000	147.000
910.000	154.000
911.000	149.000
912.000	153.000
913.000	165.000
914.000	177.000
915.000	178.000
916.000	150.000
917.000	164.000
918.000	182.000
919.000	194.000
920.000	165.000
921.000	176.000
922.000	195.000
923.000	184.000
924.000	186.000
925.000	191.000
926.000	190.000
927.000	189.000
928.000	192.000
929.000	186.000
930.000	215.000
931.000	196.000
932.000	189.000
933.000	230.000
934.000	220.000
935.000	209.000
936.000	214.000
937.000	244.000
938.000	248.000
939.000	234.000
940.000	269.000
941.000	222.000
942.000	273.000
943.000	255.000
944.000	280.000
945.000	249.000
946.000	249.000
947.000	269.000
948.000	269.000
949.000	269.000
950.000	256.000
951.000	233.000
952.000	233.000
953.000	224.000
954.000	187.000
955.000	205.000
956.000	198.000
957.000	157.000
958.000	184.000
959.000	169.000
960.000	192.000
961.000	155.000
962.000	186.000
963.000	177.000
964.000	180.000
965.000	178.000
966.000	182.000
967.000	189.000
968.000	190.000
969.000	177.000
970.000	180.000
971.000	184.000
972.000	187.000
973.000	189.000
974.000	173.000
975.000	180.000
976.000	168.000
977.000	178.000
978.000	191.000
979.000	181.000
980.000	162.000
981.000	166.000
982.000	158.000
983.000	172.000
984.000	125.000
985.000	127.000
986.000	166.000
987.000	137.000
988.000	139.000
989.000	133.000
990.000	151.000
991.000	131.000
992.000	133.000
993.000	139.000
994.000	115.000
995.000	132.000
996.000	135.000
997.000	123.000
998.000	149.000
999.000	129.000
1000.000	130.000
1001.000	141.000
1002.000	126.000
1003.000	115.000
1004.000	141.000
1005.000	141.000
1006.000	155.000
1007.000	140.000
1008.000	126.000
1009.000	114.000
1010.000	131.000
1011.000	140.000
1012.000	115.000
1013.000	105.000
1014.000	121.000
1015.000	134.000
1016.000	131.000
1017.000	128.000
1018.000	158.000
1019.000	152.000
1020.000	165.000
1021.000	144.000
1022.000	127.000
1023.000	147.000
1024.000	117.000
1025.000	147.000
1026.000	141.000
1027.000	120.000
1028.000	131.000
1029.000	136.000
1030.000	138.000
1031.000	159.000
1032.000	134.000
1033.000	132.000
1034.000	165.000
1035.000	134.000
1036.000	123.000
1037.000	139.000
1038.000	162.000
1039.000	136.000
1040.000	138.000
1041.000	148.000
1042.000	143.000
1043.000	140.000
1044.000	136.000
1045.000	146.000
1046.000	134.000
1047.000	142.000
1048.000	165.000
1049.000	148.000
1050.000	138.000
1051.000	165.000
1052.000	168.000
1053.000	149.000
1054.000	149.000
1055.000	156.000
1056.000	146.000
1057.000	153.000
1058.000	148.000
1059.000	145.000
1060.000	168.000
1061.000	159.000
1062.000	159.000
1063.000	168.000
1064.000	153.000
1065.000	185.000
1066.000	159.000
1067.000	164.000
1068.000	156.000
1069.000	175.000
1070.000	155.000
1071.000	162.000
1072.000	154.000
1073.000	176.000
1074.000	158.000
1075.000	166.000
1076.000	135.000
1077.000	143.000
1078.000	180.000
1079.000	153.000
1080.000	165.000
1081.000	137.000
1082.000	177.000
1083.000	163.000
1084.000	146.000
1085.000	171.000
1086.000	160.000
1087.000	150.000
1088.000	156.000
1089.000	145.000
1090.000	146.000
1091.000	157.000
1092.000	176.000
1093.000	152.000
1094.000	161.000
1095.000	189.000
1096.000	174.000
1097.000	201.000
1098.000	163.000
1099.000	155.000
1100.000	165.000
1101.000	174.000
1102.000	160.000
1103.000	180.000
1104.000	183.000
1105.000	172.000
1106.000	169.000
1107.000	167.000
1108.000	167.000
1109.000	170.000
1110.000	162.000
1111.000	155.000
1112.000	183.000
1113.000	156.000
1114.000	158.000
1115.000	149.000
1116.000	182.000
1117.000	151.000
1118.000	186.000
1119.000	157.000
1120.000	149.000
1121.000	162.000
1122.000	136.000
1123.000	167.000
1124.000	153.000
1125.000	158.000
1126.000	159.000
1127.000	136.000
1128.000	158.000
1129.000	170.000
1130.000	158.000
1131.000	163.000
1132.000	160.000
1133.000	156.000
1134.000	179.000
1135.000	174.000
1136.000	162.000
1137.000	160.000
1138.000	163.000
1139.000	199.000
1140.000	174.000
1141.000	178.000
1142.000	151.000
1143.000	187.000
1144.000	165.000
1145.000	159.000
1146.000	168.000
1147.000	156.000
1148.000	165.000
1149.000	156.000
1150.000	171.000
1151.000	145.000
1152.000	159.000
1153.000	189.000
1154.000	167.000
1155.000	155.000
1156.000	201.000
1157.000	195.000
1158.000	175.000
