Date:	23-Sep-20		Time:	8:13 PM		Version no:	0.00		Project name:	55		Sample name:	222		Section name:	section		Position	716.745018	mm	E0	0.000000	keV	E1	1.000000	keV/channel	sample surface	7.779928	cm	Tube anode:	Mo		Tube voltage:	30	kV	Tube current:	30	mA	gain	15		std. database			resultfile	result		matrix element	11		sample thickness	1.000000		air passage	0.560000	cm	comments	in position		peaking_time	0.300000	m-sec	trigger_threshold	40.000000	V	mca_bin_width	2.000000	no:	number_mca_channels	2048.000000	no:	gap_time	2048.000000	m-sec	trigger_peaking_time	2048.000000	m-sec	GAINDAC	400		HIGHGAIN	400		TAURC	400		RCTAU	400		RCTAUFRAC	400		livetime	13.469663	seconds	runtime	15.000079	seconds	input_count_rate	48784.368713	cps	output_count_rate	43807.034489	cps	triggers	720189	seconds	events_in_run	642279	seconds	channel	content		1.000	0.000
2.000	0.000
3.000	0.000
4.000	0.000
5.000	0.000
6.000	0.000
7.000	0.000
8.000	0.000
9.000	0.000
10.000	0.000
11.000	0.000
12.000	0.000
13.000	0.000
14.000	0.000
15.000	0.000
16.000	0.000
17.000	0.000
18.000	0.000
19.000	0.000
20.000	0.000
21.000	0.000
22.000	0.000
23.000	0.000
24.000	0.000
25.000	0.000
26.000	0.000
27.000	0.000
28.000	0.000
29.000	0.000
30.000	0.000
31.000	1.000
32.000	2.000
33.000	0.000
34.000	0.000
35.000	0.000
36.000	0.000
37.000	0.000
38.000	0.000
39.000	0.000
40.000	0.000
41.000	1.000
42.000	0.000
43.000	0.000
44.000	0.000
45.000	0.000
46.000	0.000
47.000	1.000
48.000	0.000
49.000	0.000
50.000	1.000
51.000	2.000
52.000	3.000
53.000	2.000
54.000	3.000
55.000	3.000
56.000	5.000
57.000	12.000
58.000	15.000
59.000	20.000
60.000	13.000
61.000	32.000
62.000	30.000
63.000	34.000
64.000	35.000
65.000	32.000
66.000	34.000
67.000	24.000
68.000	31.000
69.000	31.000
70.000	25.000
71.000	23.000
72.000	34.000
73.000	37.000
74.000	29.000
75.000	33.000
76.000	26.000
77.000	31.000
78.000	22.000
79.000	27.000
80.000	22.000
81.000	22.000
82.000	20.000
83.000	25.000
84.000	16.000
85.000	17.000
86.000	29.000
87.000	30.000
88.000	23.000
89.000	28.000
90.000	24.000
91.000	25.000
92.000	23.000
93.000	25.000
94.000	26.000
95.000	27.000
96.000	12.000
97.000	24.000
98.000	29.000
99.000	20.000
100.000	26.000
101.000	19.000
102.000	15.000
103.000	23.000
104.000	21.000
105.000	16.000
106.000	18.000
107.000	23.000
108.000	17.000
109.000	18.000
110.000	22.000
111.000	15.000
112.000	19.000
113.000	13.000
114.000	17.000
115.000	9.000
116.000	16.000
117.000	14.000
118.000	24.000
119.000	10.000
120.000	24.000
121.000	18.000
122.000	22.000
123.000	17.000
124.000	15.000
125.000	16.000
126.000	23.000
127.000	13.000
128.000	20.000
129.000	11.000
130.000	15.000
131.000	15.000
132.000	18.000
133.000	19.000
134.000	28.000
135.000	14.000
136.000	15.000
137.000	16.000
138.000	27.000
139.000	10.000
140.000	15.000
141.000	19.000
142.000	20.000
143.000	27.000
144.000	13.000
145.000	30.000
146.000	25.000
147.000	20.000
148.000	24.000
149.000	26.000
150.000	15.000
151.000	26.000
152.000	24.000
153.000	23.000
154.000	19.000
155.000	21.000
156.000	5.000
157.000	10.000
158.000	12.000
159.000	19.000
160.000	13.000
161.000	16.000
162.000	11.000
163.000	24.000
164.000	22.000
165.000	29.000
166.000	34.000
167.000	26.000
168.000	41.000
169.000	42.000
170.000	78.000
171.000	56.000
172.000	71.000
173.000	56.000
174.000	52.000
175.000	40.000
176.000	37.000
177.000	26.000
178.000	36.000
179.000	34.000
180.000	30.000
181.000	43.000
182.000	36.000
183.000	44.000
184.000	80.000
185.000	93.000
186.000	137.000
187.000	158.000
188.000	193.000
189.000	248.000
190.000	264.000
191.000	251.000
192.000	259.000
193.000	250.000
194.000	198.000
195.000	146.000
196.000	126.000
197.000	78.000
198.000	59.000
199.000	41.000
200.000	30.000
201.000	22.000
202.000	13.000
203.000	13.000
204.000	16.000
205.000	11.000
206.000	18.000
207.000	27.000
208.000	18.000
209.000	13.000
210.000	17.000
211.000	18.000
212.000	17.000
213.000	26.000
214.000	12.000
215.000	23.000
216.000	16.000
217.000	33.000
218.000	35.000
219.000	36.000
220.000	40.000
221.000	54.000
222.000	45.000
223.000	41.000
224.000	44.000
225.000	43.000
226.000	51.000
227.000	32.000
228.000	37.000
229.000	36.000
230.000	25.000
231.000	7.000
232.000	15.000
233.000	10.000
234.000	15.000
235.000	12.000
236.000	13.000
237.000	15.000
238.000	24.000
239.000	11.000
240.000	12.000
241.000	10.000
242.000	17.000
243.000	9.000
244.000	15.000
245.000	19.000
246.000	20.000
247.000	14.000
248.000	46.000
249.000	33.000
250.000	67.000
251.000	79.000
252.000	74.000
253.000	106.000
254.000	129.000
255.000	155.000
256.000	132.000
257.000	141.000
258.000	179.000
259.000	131.000
260.000	122.000
261.000	107.000
262.000	77.000
263.000	58.000
264.000	46.000
265.000	42.000
266.000	40.000
267.000	20.000
268.000	18.000
269.000	15.000
270.000	23.000
271.000	18.000
272.000	32.000
273.000	27.000
274.000	40.000
275.000	38.000
276.000	38.000
277.000	28.000
278.000	38.000
279.000	29.000
280.000	33.000
281.000	33.000
282.000	37.000
283.000	40.000
284.000	57.000
285.000	63.000
286.000	77.000
287.000	74.000
288.000	77.000
289.000	102.000
290.000	112.000
291.000	96.000
292.000	85.000
293.000	77.000
294.000	52.000
295.000	47.000
296.000	47.000
297.000	27.000
298.000	40.000
299.000	29.000
300.000	19.000
301.000	22.000
302.000	18.000
303.000	30.000
304.000	26.000
305.000	27.000
306.000	27.000
307.000	21.000
308.000	37.000
309.000	38.000
310.000	49.000
311.000	49.000
312.000	37.000
313.000	50.000
314.000	64.000
315.000	67.000
316.000	86.000
317.000	107.000
318.000	133.000
319.000	183.000
320.000	210.000
321.000	241.000
322.000	302.000
323.000	358.000
324.000	321.000
325.000	348.000
326.000	318.000
327.000	282.000
328.000	272.000
329.000	221.000
330.000	184.000
331.000	139.000
332.000	98.000
333.000	65.000
334.000	71.000
335.000	57.000
336.000	50.000
337.000	33.000
338.000	39.000
339.000	47.000
340.000	50.000
341.000	43.000
342.000	60.000
343.000	96.000
344.000	98.000
345.000	148.000
346.000	194.000
347.000	329.000
348.000	529.000
349.000	816.000
350.000	1212.000
351.000	1879.000
352.000	2942.000
353.000	4388.000
354.000	6309.000
355.000	8593.000
356.000	11320.000
357.000	13978.000
358.000	16831.000
359.000	19263.000
360.000	20916.000
361.000	21706.000
362.000	21493.000
363.000	20170.000
364.000	18855.000
365.000	15842.000
366.000	13155.000
367.000	10390.000
368.000	7850.000
369.000	5648.000
370.000	3962.000
371.000	2533.000
372.000	1563.000
373.000	979.000
374.000	647.000
375.000	422.000
376.000	230.000
377.000	183.000
378.000	174.000
379.000	199.000
380.000	257.000
381.000	305.000
382.000	430.000
383.000	538.000
384.000	718.000
385.000	975.000
386.000	1297.000
387.000	1678.000
388.000	2024.000
389.000	2371.000
390.000	2779.000
391.000	3066.000
392.000	3177.000
393.000	3289.000
394.000	3169.000
395.000	2980.000
396.000	2588.000
397.000	2227.000
398.000	1786.000
399.000	1401.000
400.000	1070.000
401.000	745.000
402.000	552.000
403.000	362.000
404.000	211.000
405.000	150.000
406.000	98.000
407.000	44.000
408.000	38.000
409.000	12.000
410.000	16.000
411.000	9.000
412.000	9.000
413.000	10.000
414.000	9.000
415.000	10.000
416.000	7.000
417.000	3.000
418.000	8.000
419.000	13.000
420.000	7.000
421.000	8.000
422.000	8.000
423.000	10.000
424.000	8.000
425.000	11.000
426.000	14.000
427.000	20.000
428.000	10.000
429.000	15.000
430.000	28.000
431.000	19.000
432.000	37.000
433.000	67.000
434.000	57.000
435.000	76.000
436.000	97.000
437.000	117.000
438.000	137.000
439.000	154.000
440.000	137.000
441.000	165.000
442.000	139.000
443.000	142.000
444.000	122.000
445.000	120.000
446.000	91.000
447.000	81.000
448.000	63.000
449.000	56.000
450.000	40.000
451.000	35.000
452.000	31.000
453.000	28.000
454.000	26.000
455.000	29.000
456.000	24.000
457.000	25.000
458.000	26.000
459.000	25.000
460.000	29.000
461.000	25.000
462.000	15.000
463.000	19.000
464.000	10.000
465.000	21.000
466.000	18.000
467.000	17.000
468.000	20.000
469.000	10.000
470.000	18.000
471.000	16.000
472.000	24.000
473.000	21.000
474.000	25.000
475.000	33.000
476.000	26.000
477.000	22.000
478.000	41.000
479.000	36.000
480.000	32.000
481.000	43.000
482.000	31.000
483.000	32.000
484.000	48.000
485.000	42.000
486.000	47.000
487.000	29.000
488.000	29.000
489.000	25.000
490.000	23.000
491.000	21.000
492.000	31.000
493.000	14.000
494.000	17.000
495.000	12.000
496.000	19.000
497.000	11.000
498.000	12.000
499.000	20.000
500.000	20.000
501.000	21.000
502.000	20.000
503.000	20.000
504.000	17.000
505.000	28.000
506.000	18.000
507.000	25.000
508.000	20.000
509.000	23.000
510.000	19.000
511.000	32.000
512.000	24.000
513.000	15.000
514.000	23.000
515.000	25.000
516.000	28.000
517.000	32.000
518.000	23.000
519.000	29.000
520.000	20.000
521.000	35.000
522.000	34.000
523.000	27.000
524.000	35.000
525.000	38.000
526.000	61.000
527.000	32.000
528.000	31.000
529.000	43.000
530.000	52.000
531.000	38.000
532.000	25.000
533.000	35.000
534.000	23.000
535.000	23.000
536.000	34.000
537.000	27.000
538.000	28.000
539.000	28.000
540.000	18.000
541.000	23.000
542.000	24.000
543.000	33.000
544.000	16.000
545.000	15.000
546.000	27.000
547.000	25.000
548.000	17.000
549.000	20.000
550.000	20.000
551.000	26.000
552.000	21.000
553.000	31.000
554.000	21.000
555.000	20.000
556.000	28.000
557.000	27.000
558.000	19.000
559.000	28.000
560.000	33.000
561.000	45.000
562.000	33.000
563.000	27.000
564.000	24.000
565.000	32.000
566.000	38.000
567.000	53.000
568.000	62.000
569.000	56.000
570.000	63.000
571.000	69.000
572.000	75.000
573.000	89.000
574.000	74.000
575.000	92.000
576.000	77.000
577.000	89.000
578.000	100.000
579.000	89.000
580.000	82.000
581.000	70.000
582.000	65.000
583.000	64.000
584.000	44.000
585.000	51.000
586.000	34.000
587.000	31.000
588.000	27.000
589.000	34.000
590.000	35.000
591.000	37.000
592.000	23.000
593.000	29.000
594.000	25.000
595.000	35.000
596.000	33.000
597.000	30.000
598.000	36.000
599.000	32.000
600.000	30.000
601.000	30.000
602.000	34.000
603.000	52.000
604.000	47.000
605.000	42.000
606.000	47.000
607.000	67.000
608.000	83.000
609.000	140.000
610.000	158.000
611.000	216.000
612.000	311.000
613.000	479.000
614.000	560.000
615.000	818.000
616.000	1074.000
617.000	1432.000
618.000	1735.000
619.000	2160.000
620.000	2536.000
621.000	2929.000
622.000	3201.000
623.000	3526.000
624.000	3660.000
625.000	3859.000
626.000	3812.000
627.000	3606.000
628.000	3464.000
629.000	3073.000
630.000	2739.000
631.000	2429.000
632.000	2009.000
633.000	1709.000
634.000	1255.000
635.000	960.000
636.000	748.000
637.000	566.000
638.000	436.000
639.000	279.000
640.000	212.000
641.000	123.000
642.000	116.000
643.000	87.000
644.000	71.000
645.000	66.000
646.000	59.000
647.000	67.000
648.000	53.000
649.000	46.000
650.000	46.000
651.000	52.000
652.000	60.000
653.000	52.000
654.000	40.000
655.000	53.000
656.000	46.000
657.000	61.000
658.000	54.000
659.000	65.000
660.000	53.000
661.000	72.000
662.000	49.000
663.000	50.000
664.000	56.000
665.000	75.000
666.000	49.000
667.000	78.000
668.000	70.000
669.000	70.000
670.000	89.000
671.000	86.000
672.000	92.000
673.000	117.000
674.000	108.000
675.000	116.000
676.000	160.000
677.000	160.000
678.000	177.000
679.000	252.000
680.000	238.000
681.000	317.000
682.000	373.000
683.000	450.000
684.000	507.000
685.000	531.000
686.000	622.000
687.000	572.000
688.000	688.000
689.000	682.000
690.000	700.000
691.000	579.000
692.000	619.000
693.000	549.000
694.000	488.000
695.000	445.000
696.000	382.000
697.000	296.000
698.000	262.000
699.000	238.000
700.000	182.000
701.000	151.000
702.000	118.000
703.000	88.000
704.000	85.000
705.000	76.000
706.000	84.000
707.000	52.000
708.000	74.000
709.000	65.000
710.000	57.000
711.000	74.000
712.000	55.000
713.000	57.000
714.000	66.000
715.000	60.000
716.000	71.000
717.000	76.000
718.000	71.000
719.000	77.000
720.000	85.000
721.000	101.000
722.000	102.000
723.000	80.000
724.000	99.000
725.000	102.000
726.000	99.000
727.000	97.000
728.000	86.000
729.000	80.000
730.000	107.000
731.000	84.000
732.000	86.000
733.000	94.000
734.000	73.000
735.000	85.000
736.000	83.000
737.000	87.000
738.000	75.000
739.000	65.000
740.000	65.000
741.000	53.000
742.000	63.000
743.000	65.000
744.000	75.000
745.000	62.000
746.000	74.000
747.000	72.000
748.000	73.000
749.000	69.000
750.000	66.000
751.000	70.000
752.000	61.000
753.000	58.000
754.000	84.000
755.000	79.000
756.000	61.000
757.000	76.000
758.000	69.000
759.000	62.000
760.000	79.000
761.000	79.000
762.000	73.000
763.000	84.000
764.000	71.000
765.000	65.000
766.000	65.000
767.000	80.000
768.000	87.000
769.000	72.000
770.000	73.000
771.000	87.000
772.000	98.000
773.000	71.000
774.000	100.000
775.000	86.000
776.000	96.000
777.000	93.000
778.000	91.000
779.000	103.000
780.000	97.000
781.000	106.000
782.000	120.000
783.000	118.000
784.000	124.000
785.000	114.000
786.000	135.000
787.000	120.000
788.000	132.000
789.000	133.000
790.000	127.000
791.000	149.000
792.000	140.000
793.000	149.000
794.000	145.000
795.000	129.000
796.000	165.000
797.000	145.000
798.000	139.000
799.000	162.000
800.000	136.000
801.000	141.000
802.000	128.000
803.000	155.000
804.000	162.000
805.000	146.000
806.000	172.000
807.000	182.000
808.000	181.000
809.000	189.000
810.000	173.000
811.000	190.000
812.000	243.000
813.000	254.000
814.000	228.000
815.000	248.000
816.000	292.000
817.000	305.000
818.000	298.000
819.000	314.000
820.000	318.000
821.000	297.000
822.000	317.000
823.000	297.000
824.000	278.000
825.000	273.000
826.000	242.000
827.000	223.000
828.000	200.000
829.000	187.000
830.000	172.000
831.000	159.000
832.000	155.000
833.000	156.000
834.000	145.000
835.000	97.000
836.000	127.000
837.000	127.000
838.000	128.000
839.000	126.000
840.000	125.000
841.000	124.000
842.000	121.000
843.000	114.000
844.000	136.000
845.000	136.000
846.000	127.000
847.000	125.000
848.000	108.000
849.000	136.000
850.000	128.000
851.000	116.000
852.000	107.000
853.000	104.000
854.000	120.000
855.000	124.000
856.000	102.000
857.000	97.000
858.000	97.000
859.000	113.000
860.000	99.000
861.000	99.000
862.000	118.000
863.000	117.000
864.000	127.000
865.000	131.000
866.000	106.000
867.000	106.000
868.000	126.000
869.000	100.000
870.000	129.000
871.000	121.000
872.000	101.000
873.000	107.000
874.000	117.000
875.000	115.000
876.000	132.000
877.000	92.000
878.000	117.000
879.000	120.000
880.000	119.000
881.000	107.000
882.000	130.000
883.000	135.000
884.000	128.000
885.000	119.000
886.000	114.000
887.000	118.000
888.000	128.000
889.000	115.000
890.000	124.000
891.000	125.000
892.000	125.000
893.000	111.000
894.000	146.000
895.000	139.000
896.000	135.000
897.000	138.000
898.000	123.000
899.000	135.000
900.000	173.000
901.000	142.000
902.000	139.000
903.000	161.000
904.000	168.000
905.000	136.000
906.000	156.000
907.000	164.000
908.000	165.000
909.000	167.000
910.000	178.000
911.000	154.000
912.000	173.000
913.000	167.000
914.000	159.000
915.000	178.000
916.000	187.000
917.000	170.000
918.000	164.000
919.000	191.000
920.000	177.000
921.000	170.000
922.000	165.000
923.000	181.000
924.000	192.000
925.000	174.000
926.000	188.000
927.000	185.000
928.000	187.000
929.000	188.000
930.000	186.000
931.000	173.000
932.000	215.000
933.000	233.000
934.000	220.000
935.000	198.000
936.000	231.000
937.000	245.000
938.000	235.000
939.000	265.000
940.000	245.000
941.000	216.000
942.000	260.000
943.000	260.000
944.000	267.000
945.000	250.000
946.000	286.000
947.000	294.000
948.000	264.000
949.000	270.000
950.000	252.000
951.000	219.000
952.000	239.000
953.000	209.000
954.000	192.000
955.000	161.000
956.000	213.000
957.000	202.000
958.000	168.000
959.000	156.000
960.000	182.000
961.000	195.000
962.000	181.000
963.000	176.000
964.000	158.000
965.000	162.000
966.000	184.000
967.000	190.000
968.000	190.000
969.000	188.000
970.000	164.000
971.000	178.000
972.000	187.000
973.000	206.000
974.000	196.000
975.000	164.000
976.000	164.000
977.000	171.000
978.000	175.000
979.000	179.000
980.000	171.000
981.000	168.000
982.000	143.000
983.000	172.000
984.000	163.000
985.000	157.000
986.000	162.000
987.000	141.000
988.000	134.000
989.000	141.000
990.000	155.000
991.000	146.000
992.000	137.000
993.000	166.000
994.000	150.000
995.000	155.000
996.000	142.000
997.000	139.000
998.000	153.000
999.000	128.000
1000.000	135.000
1001.000	122.000
1002.000	116.000
1003.000	145.000
1004.000	136.000
1005.000	149.000
1006.000	144.000
1007.000	140.000
1008.000	129.000
1009.000	151.000
1010.000	134.000
1011.000	116.000
1012.000	126.000
1013.000	126.000
1014.000	135.000
1015.000	142.000
1016.000	143.000
1017.000	116.000
1018.000	124.000
1019.000	131.000
1020.000	155.000
1021.000	143.000
1022.000	143.000
1023.000	145.000
1024.000	148.000
1025.000	140.000
1026.000	147.000
1027.000	142.000
1028.000	131.000
1029.000	124.000
1030.000	158.000
1031.000	144.000
1032.000	136.000
1033.000	146.000
1034.000	154.000
1035.000	122.000
1036.000	135.000
1037.000	143.000
1038.000	162.000
1039.000	178.000
1040.000	162.000
1041.000	129.000
1042.000	134.000
1043.000	129.000
1044.000	139.000
1045.000	156.000
1046.000	156.000
1047.000	153.000
1048.000	132.000
1049.000	162.000
1050.000	163.000
1051.000	145.000
1052.000	142.000
1053.000	164.000
1054.000	158.000
1055.000	143.000
1056.000	152.000
1057.000	157.000
1058.000	180.000
1059.000	163.000
1060.000	159.000
1061.000	191.000
1062.000	148.000
1063.000	150.000
1064.000	157.000
1065.000	177.000
1066.000	165.000
1067.000	155.000
1068.000	158.000
1069.000	164.000
1070.000	151.000
1071.000	160.000
1072.000	166.000
1073.000	174.000
1074.000	172.000
1075.000	178.000
1076.000	148.000
1077.000	166.000
1078.000	151.000
1079.000	146.000
1080.000	155.000
1081.000	179.000
1082.000	147.000
1083.000	172.000
1084.000	164.000
1085.000	179.000
1086.000	168.000
1087.000	172.000
1088.000	160.000
1089.000	175.000
1090.000	156.000
1091.000	158.000
1092.000	155.000
1093.000	187.000
1094.000	146.000
1095.000	167.000
1096.000	155.000
1097.000	187.000
1098.000	177.000
1099.000	171.000
1100.000	165.000
1101.000	193.000
1102.000	180.000
1103.000	161.000
1104.000	171.000
1105.000	152.000
1106.000	171.000
1107.000	171.000
1108.000	164.000
1109.000	158.000
1110.000	168.000
1111.000	155.000
1112.000	178.000
1113.000	156.000
1114.000	177.000
1115.000	173.000
1116.000	148.000
1117.000	147.000
1118.000	148.000
1119.000	173.000
1120.000	163.000
1121.000	160.000
1122.000	175.000
1123.000	149.000
1124.000	166.000
1125.000	164.000
1126.000	168.000
1127.000	171.000
1128.000	170.000
1129.000	164.000
1130.000	175.000
1131.000	151.000
1132.000	163.000
1133.000	185.000
1134.000	168.000
1135.000	158.000
1136.000	181.000
1137.000	152.000
1138.000	159.000
1139.000	152.000
1140.000	165.000
1141.000	146.000
1142.000	187.000
1143.000	185.000
1144.000	169.000
1145.000	181.000
1146.000	158.000
1147.000	130.000
1148.000	151.000
1149.000	181.000
1150.000	176.000
1151.000	170.000
1152.000	188.000
1153.000	175.000
1154.000	133.000
1155.000	182.000
1156.000	173.000
1157.000	179.000
1158.000	188.000
