Date:	23-Sep-20		Time:	9:11 PM		Version no:	0.00		Project name:	55		Sample name:	222		Section name:	section		Position	935.745018	mm	E0	0.000000	keV	E1	1.000000	keV/channel	sample surface	7.506846	cm	Tube anode:	Mo		Tube voltage:	30	kV	Tube current:	30	mA	gain	15		std. database			resultfile	result		matrix element	11		sample thickness	1.000000		air passage	0.560000	cm	comments	in position		peaking_time	0.300000	m-sec	trigger_threshold	40.000000	V	mca_bin_width	2.000000	no:	number_mca_channels	2048.000000	no:	gap_time	2048.000000	m-sec	trigger_peaking_time	2048.000000	m-sec	GAINDAC	400		HIGHGAIN	400		TAURC	400		RCTAU	400		RCTAUFRAC	400		livetime	13.479851	seconds	runtime	15.000213	seconds	input_count_rate	48860.258728	cps	output_count_rate	43907.975043	cps	triggers	721384	seconds	events_in_run	644285	seconds	channel	content		1.000	0.000
2.000	0.000
3.000	0.000
4.000	0.000
5.000	0.000
6.000	0.000
7.000	0.000
8.000	0.000
9.000	0.000
10.000	0.000
11.000	0.000
12.000	0.000
13.000	0.000
14.000	0.000
15.000	0.000
16.000	0.000
17.000	0.000
18.000	0.000
19.000	0.000
20.000	0.000
21.000	0.000
22.000	0.000
23.000	0.000
24.000	0.000
25.000	0.000
26.000	0.000
27.000	0.000
28.000	0.000
29.000	0.000
30.000	0.000
31.000	1.000
32.000	1.000
33.000	0.000
34.000	0.000
35.000	0.000
36.000	0.000
37.000	1.000
38.000	0.000
39.000	2.000
40.000	0.000
41.000	0.000
42.000	0.000
43.000	0.000
44.000	0.000
45.000	0.000
46.000	0.000
47.000	2.000
48.000	0.000
49.000	0.000
50.000	0.000
51.000	2.000
52.000	0.000
53.000	1.000
54.000	4.000
55.000	1.000
56.000	12.000
57.000	12.000
58.000	17.000
59.000	25.000
60.000	18.000
61.000	23.000
62.000	25.000
63.000	32.000
64.000	27.000
65.000	27.000
66.000	16.000
67.000	31.000
68.000	29.000
69.000	27.000
70.000	26.000
71.000	25.000
72.000	15.000
73.000	28.000
74.000	27.000
75.000	27.000
76.000	26.000
77.000	29.000
78.000	26.000
79.000	19.000
80.000	22.000
81.000	22.000
82.000	21.000
83.000	27.000
84.000	18.000
85.000	23.000
86.000	23.000
87.000	26.000
88.000	29.000
89.000	19.000
90.000	20.000
91.000	26.000
92.000	24.000
93.000	31.000
94.000	22.000
95.000	20.000
96.000	19.000
97.000	20.000
98.000	17.000
99.000	23.000
100.000	18.000
101.000	19.000
102.000	23.000
103.000	22.000
104.000	22.000
105.000	13.000
106.000	16.000
107.000	20.000
108.000	21.000
109.000	19.000
110.000	13.000
111.000	21.000
112.000	19.000
113.000	17.000
114.000	12.000
115.000	21.000
116.000	17.000
117.000	17.000
118.000	23.000
119.000	25.000
120.000	14.000
121.000	10.000
122.000	21.000
123.000	22.000
124.000	17.000
125.000	22.000
126.000	23.000
127.000	7.000
128.000	13.000
129.000	15.000
130.000	17.000
131.000	16.000
132.000	10.000
133.000	18.000
134.000	14.000
135.000	17.000
136.000	14.000
137.000	16.000
138.000	10.000
139.000	14.000
140.000	21.000
141.000	18.000
142.000	30.000
143.000	17.000
144.000	25.000
145.000	29.000
146.000	24.000
147.000	26.000
148.000	28.000
149.000	27.000
150.000	16.000
151.000	19.000
152.000	23.000
153.000	17.000
154.000	12.000
155.000	11.000
156.000	15.000
157.000	19.000
158.000	15.000
159.000	8.000
160.000	10.000
161.000	8.000
162.000	15.000
163.000	13.000
164.000	10.000
165.000	22.000
166.000	33.000
167.000	41.000
168.000	32.000
169.000	43.000
170.000	53.000
171.000	46.000
172.000	45.000
173.000	31.000
174.000	47.000
175.000	32.000
176.000	39.000
177.000	39.000
178.000	32.000
179.000	28.000
180.000	29.000
181.000	37.000
182.000	37.000
183.000	54.000
184.000	75.000
185.000	95.000
186.000	135.000
187.000	153.000
188.000	209.000
189.000	221.000
190.000	238.000
191.000	258.000
192.000	222.000
193.000	267.000
194.000	192.000
195.000	184.000
196.000	125.000
197.000	76.000
198.000	64.000
199.000	46.000
200.000	30.000
201.000	21.000
202.000	17.000
203.000	16.000
204.000	15.000
205.000	13.000
206.000	15.000
207.000	20.000
208.000	19.000
209.000	16.000
210.000	21.000
211.000	22.000
212.000	11.000
213.000	17.000
214.000	21.000
215.000	26.000
216.000	24.000
217.000	31.000
218.000	39.000
219.000	39.000
220.000	40.000
221.000	35.000
222.000	33.000
223.000	52.000
224.000	48.000
225.000	58.000
226.000	45.000
227.000	39.000
228.000	27.000
229.000	30.000
230.000	26.000
231.000	23.000
232.000	15.000
233.000	14.000
234.000	20.000
235.000	13.000
236.000	15.000
237.000	9.000
238.000	17.000
239.000	12.000
240.000	11.000
241.000	15.000
242.000	26.000
243.000	25.000
244.000	14.000
245.000	14.000
246.000	24.000
247.000	16.000
248.000	32.000
249.000	54.000
250.000	43.000
251.000	67.000
252.000	75.000
253.000	115.000
254.000	121.000
255.000	148.000
256.000	176.000
257.000	160.000
258.000	141.000
259.000	155.000
260.000	111.000
261.000	113.000
262.000	71.000
263.000	58.000
264.000	57.000
265.000	29.000
266.000	34.000
267.000	16.000
268.000	22.000
269.000	26.000
270.000	25.000
271.000	26.000
272.000	24.000
273.000	29.000
274.000	40.000
275.000	35.000
276.000	35.000
277.000	32.000
278.000	33.000
279.000	34.000
280.000	40.000
281.000	23.000
282.000	30.000
283.000	40.000
284.000	47.000
285.000	60.000
286.000	57.000
287.000	96.000
288.000	67.000
289.000	92.000
290.000	91.000
291.000	77.000
292.000	86.000
293.000	70.000
294.000	60.000
295.000	52.000
296.000	47.000
297.000	29.000
298.000	35.000
299.000	28.000
300.000	31.000
301.000	20.000
302.000	21.000
303.000	19.000
304.000	24.000
305.000	20.000
306.000	15.000
307.000	26.000
308.000	23.000
309.000	33.000
310.000	37.000
311.000	41.000
312.000	33.000
313.000	45.000
314.000	49.000
315.000	50.000
316.000	46.000
317.000	84.000
318.000	84.000
319.000	104.000
320.000	139.000
321.000	175.000
322.000	194.000
323.000	200.000
324.000	195.000
325.000	198.000
326.000	182.000
327.000	155.000
328.000	154.000
329.000	137.000
330.000	110.000
331.000	73.000
332.000	66.000
333.000	46.000
334.000	36.000
335.000	35.000
336.000	22.000
337.000	32.000
338.000	46.000
339.000	39.000
340.000	43.000
341.000	41.000
342.000	55.000
343.000	88.000
344.000	98.000
345.000	142.000
346.000	220.000
347.000	306.000
348.000	508.000
349.000	747.000
350.000	1197.000
351.000	1904.000
352.000	2890.000
353.000	4303.000
354.000	6077.000
355.000	8269.000
356.000	10873.000
357.000	13763.000
358.000	16356.000
359.000	18462.000
360.000	20542.000
361.000	21152.000
362.000	21099.000
363.000	19976.000
364.000	18009.000
365.000	15664.000
366.000	12497.000
367.000	10030.000
368.000	7664.000
369.000	5477.000
370.000	3702.000
371.000	2449.000
372.000	1602.000
373.000	946.000
374.000	576.000
375.000	364.000
376.000	240.000
377.000	184.000
378.000	166.000
379.000	160.000
380.000	231.000
381.000	282.000
382.000	367.000
383.000	519.000
384.000	714.000
385.000	949.000
386.000	1265.000
387.000	1615.000
388.000	2019.000
389.000	2312.000
390.000	2614.000
391.000	2930.000
392.000	3141.000
393.000	3113.000
394.000	3075.000
395.000	2886.000
396.000	2470.000
397.000	2106.000
398.000	1704.000
399.000	1370.000
400.000	1045.000
401.000	731.000
402.000	526.000
403.000	368.000
404.000	242.000
405.000	154.000
406.000	91.000
407.000	52.000
408.000	29.000
409.000	24.000
410.000	16.000
411.000	15.000
412.000	11.000
413.000	5.000
414.000	9.000
415.000	2.000
416.000	11.000
417.000	7.000
418.000	4.000
419.000	8.000
420.000	9.000
421.000	4.000
422.000	5.000
423.000	10.000
424.000	5.000
425.000	15.000
426.000	12.000
427.000	14.000
428.000	16.000
429.000	22.000
430.000	31.000
431.000	38.000
432.000	52.000
433.000	77.000
434.000	93.000
435.000	117.000
436.000	162.000
437.000	189.000
438.000	194.000
439.000	222.000
440.000	261.000
441.000	227.000
442.000	250.000
443.000	236.000
444.000	208.000
445.000	161.000
446.000	154.000
447.000	152.000
448.000	98.000
449.000	103.000
450.000	67.000
451.000	64.000
452.000	38.000
453.000	42.000
454.000	45.000
455.000	34.000
456.000	47.000
457.000	36.000
458.000	26.000
459.000	30.000
460.000	26.000
461.000	16.000
462.000	27.000
463.000	16.000
464.000	16.000
465.000	11.000
466.000	16.000
467.000	12.000
468.000	16.000
469.000	20.000
470.000	18.000
471.000	22.000
472.000	22.000
473.000	26.000
474.000	32.000
475.000	24.000
476.000	26.000
477.000	41.000
478.000	40.000
479.000	51.000
480.000	53.000
481.000	61.000
482.000	46.000
483.000	61.000
484.000	47.000
485.000	57.000
486.000	49.000
487.000	40.000
488.000	34.000
489.000	31.000
490.000	23.000
491.000	27.000
492.000	19.000
493.000	32.000
494.000	23.000
495.000	22.000
496.000	21.000
497.000	17.000
498.000	8.000
499.000	14.000
500.000	11.000
501.000	16.000
502.000	17.000
503.000	15.000
504.000	14.000
505.000	15.000
506.000	15.000
507.000	14.000
508.000	22.000
509.000	17.000
510.000	17.000
511.000	18.000
512.000	20.000
513.000	20.000
514.000	14.000
515.000	31.000
516.000	26.000
517.000	15.000
518.000	29.000
519.000	31.000
520.000	30.000
521.000	22.000
522.000	29.000
523.000	42.000
524.000	40.000
525.000	51.000
526.000	55.000
527.000	49.000
528.000	39.000
529.000	47.000
530.000	46.000
531.000	52.000
532.000	43.000
533.000	33.000
534.000	33.000
535.000	36.000
536.000	33.000
537.000	26.000
538.000	25.000
539.000	19.000
540.000	25.000
541.000	18.000
542.000	25.000
543.000	25.000
544.000	28.000
545.000	18.000
546.000	21.000
547.000	25.000
548.000	21.000
549.000	22.000
550.000	23.000
551.000	24.000
552.000	24.000
553.000	26.000
554.000	37.000
555.000	42.000
556.000	21.000
557.000	34.000
558.000	27.000
559.000	30.000
560.000	40.000
561.000	33.000
562.000	40.000
563.000	45.000
564.000	52.000
565.000	30.000
566.000	47.000
567.000	45.000
568.000	52.000
569.000	67.000
570.000	84.000
571.000	80.000
572.000	79.000
573.000	98.000
574.000	99.000
575.000	95.000
576.000	103.000
577.000	100.000
578.000	93.000
579.000	105.000
580.000	92.000
581.000	78.000
582.000	69.000
583.000	83.000
584.000	40.000
585.000	56.000
586.000	34.000
587.000	37.000
588.000	33.000
589.000	47.000
590.000	37.000
591.000	31.000
592.000	26.000
593.000	19.000
594.000	31.000
595.000	29.000
596.000	27.000
597.000	28.000
598.000	31.000
599.000	27.000
600.000	39.000
601.000	42.000
602.000	41.000
603.000	40.000
604.000	44.000
605.000	57.000
606.000	58.000
607.000	88.000
608.000	130.000
609.000	140.000
610.000	207.000
611.000	294.000
612.000	426.000
613.000	558.000
614.000	767.000
615.000	1065.000
616.000	1418.000
617.000	1818.000
618.000	2243.000
619.000	2742.000
620.000	3232.000
621.000	3756.000
622.000	4305.000
623.000	4387.000
624.000	4746.000
625.000	4877.000
626.000	4931.000
627.000	4677.000
628.000	4347.000
629.000	4022.000
630.000	3640.000
631.000	3019.000
632.000	2442.000
633.000	2012.000
634.000	1593.000
635.000	1200.000
636.000	942.000
637.000	718.000
638.000	539.000
639.000	337.000
640.000	281.000
641.000	198.000
642.000	126.000
643.000	105.000
644.000	79.000
645.000	76.000
646.000	59.000
647.000	75.000
648.000	70.000
649.000	53.000
650.000	56.000
651.000	63.000
652.000	55.000
653.000	54.000
654.000	58.000
655.000	67.000
656.000	77.000
657.000	59.000
658.000	50.000
659.000	46.000
660.000	69.000
661.000	62.000
662.000	61.000
663.000	58.000
664.000	63.000
665.000	67.000
666.000	68.000
667.000	56.000
668.000	63.000
669.000	80.000
670.000	91.000
671.000	83.000
672.000	90.000
673.000	113.000
674.000	106.000
675.000	138.000
676.000	169.000
677.000	212.000
678.000	215.000
679.000	276.000
680.000	302.000
681.000	398.000
682.000	472.000
683.000	533.000
684.000	588.000
685.000	636.000
686.000	724.000
687.000	772.000
688.000	776.000
689.000	829.000
690.000	793.000
691.000	753.000
692.000	737.000
693.000	686.000
694.000	619.000
695.000	557.000
696.000	484.000
697.000	377.000
698.000	320.000
699.000	287.000
700.000	212.000
701.000	160.000
702.000	135.000
703.000	119.000
704.000	110.000
705.000	67.000
706.000	70.000
707.000	71.000
708.000	72.000
709.000	47.000
710.000	55.000
711.000	73.000
712.000	59.000
713.000	51.000
714.000	69.000
715.000	73.000
716.000	65.000
717.000	90.000
718.000	66.000
719.000	86.000
720.000	91.000
721.000	74.000
722.000	82.000
723.000	94.000
724.000	93.000
725.000	94.000
726.000	85.000
727.000	79.000
728.000	83.000
729.000	77.000
730.000	87.000
731.000	108.000
732.000	107.000
733.000	86.000
734.000	87.000
735.000	93.000
736.000	81.000
737.000	70.000
738.000	72.000
739.000	79.000
740.000	76.000
741.000	85.000
742.000	63.000
743.000	76.000
744.000	66.000
745.000	70.000
746.000	61.000
747.000	76.000
748.000	56.000
749.000	62.000
750.000	71.000
751.000	67.000
752.000	69.000
753.000	68.000
754.000	68.000
755.000	78.000
756.000	81.000
757.000	55.000
758.000	75.000
759.000	75.000
760.000	63.000
761.000	51.000
762.000	73.000
763.000	52.000
764.000	79.000
765.000	64.000
766.000	73.000
767.000	70.000
768.000	63.000
769.000	64.000
770.000	88.000
771.000	84.000
772.000	73.000
773.000	66.000
774.000	77.000
775.000	98.000
776.000	83.000
777.000	94.000
778.000	92.000
779.000	104.000
780.000	100.000
781.000	108.000
782.000	98.000
783.000	107.000
784.000	134.000
785.000	128.000
786.000	129.000
787.000	125.000
788.000	121.000
789.000	125.000
790.000	129.000
791.000	140.000
792.000	140.000
793.000	131.000
794.000	135.000
795.000	142.000
796.000	164.000
797.000	124.000
798.000	117.000
799.000	130.000
800.000	134.000
801.000	137.000
802.000	155.000
803.000	146.000
804.000	146.000
805.000	139.000
806.000	152.000
807.000	165.000
808.000	159.000
809.000	196.000
810.000	197.000
811.000	179.000
812.000	203.000
813.000	235.000
814.000	255.000
815.000	278.000
816.000	278.000
817.000	304.000
818.000	350.000
819.000	289.000
820.000	310.000
821.000	269.000
822.000	307.000
823.000	322.000
824.000	252.000
825.000	257.000
826.000	224.000
827.000	211.000
828.000	192.000
829.000	165.000
830.000	152.000
831.000	170.000
832.000	140.000
833.000	128.000
834.000	122.000
835.000	123.000
836.000	118.000
837.000	136.000
838.000	112.000
839.000	133.000
840.000	127.000
841.000	112.000
842.000	105.000
843.000	131.000
844.000	130.000
845.000	129.000
846.000	110.000
847.000	128.000
848.000	120.000
849.000	128.000
850.000	119.000
851.000	105.000
852.000	95.000
853.000	126.000
854.000	123.000
855.000	114.000
856.000	126.000
857.000	110.000
858.000	113.000
859.000	126.000
860.000	118.000
861.000	109.000
862.000	103.000
863.000	123.000
864.000	105.000
865.000	102.000
866.000	119.000
867.000	99.000
868.000	104.000
869.000	90.000
870.000	105.000
871.000	115.000
872.000	105.000
873.000	109.000
874.000	120.000
875.000	119.000
876.000	122.000
877.000	116.000
878.000	106.000
879.000	78.000
880.000	117.000
881.000	120.000
882.000	84.000
883.000	125.000
884.000	115.000
885.000	112.000
886.000	100.000
887.000	126.000
888.000	121.000
889.000	115.000
890.000	126.000
891.000	112.000
892.000	128.000
893.000	123.000
894.000	111.000
895.000	114.000
896.000	122.000
897.000	113.000
898.000	163.000
899.000	143.000
900.000	135.000
901.000	131.000
902.000	134.000
903.000	119.000
904.000	130.000
905.000	136.000
906.000	151.000
907.000	158.000
908.000	155.000
909.000	154.000
910.000	152.000
911.000	151.000
912.000	160.000
913.000	163.000
914.000	136.000
915.000	169.000
916.000	156.000
917.000	142.000
918.000	165.000
919.000	158.000
920.000	155.000
921.000	168.000
922.000	185.000
923.000	160.000
924.000	179.000
925.000	181.000
926.000	205.000
927.000	206.000
928.000	159.000
929.000	187.000
930.000	201.000
931.000	202.000
932.000	218.000
933.000	222.000
934.000	201.000
935.000	191.000
936.000	241.000
937.000	232.000
938.000	250.000
939.000	213.000
940.000	222.000
941.000	244.000
942.000	273.000
943.000	241.000
944.000	261.000
945.000	238.000
946.000	241.000
947.000	242.000
948.000	191.000
949.000	228.000
950.000	197.000
951.000	207.000
952.000	186.000
953.000	209.000
954.000	205.000
955.000	192.000
956.000	164.000
957.000	175.000
958.000	179.000
959.000	181.000
960.000	192.000
961.000	158.000
962.000	165.000
963.000	193.000
964.000	171.000
965.000	188.000
966.000	171.000
967.000	173.000
968.000	168.000
969.000	175.000
970.000	197.000
971.000	192.000
972.000	182.000
973.000	180.000
974.000	201.000
975.000	190.000
976.000	173.000
977.000	207.000
978.000	173.000
979.000	159.000
980.000	150.000
981.000	142.000
982.000	155.000
983.000	152.000
984.000	153.000
985.000	127.000
986.000	158.000
987.000	140.000
988.000	145.000
989.000	145.000
990.000	155.000
991.000	150.000
992.000	144.000
993.000	146.000
994.000	145.000
995.000	137.000
996.000	126.000
997.000	149.000
998.000	120.000
999.000	118.000
1000.000	145.000
1001.000	137.000
1002.000	134.000
1003.000	127.000
1004.000	119.000
1005.000	127.000
1006.000	111.000
1007.000	126.000
1008.000	138.000
1009.000	133.000
1010.000	113.000
1011.000	133.000
1012.000	128.000
1013.000	127.000
1014.000	133.000
1015.000	145.000
1016.000	140.000
1017.000	134.000
1018.000	134.000
1019.000	131.000
1020.000	132.000
1021.000	133.000
1022.000	128.000
1023.000	148.000
1024.000	130.000
1025.000	125.000
1026.000	145.000
1027.000	149.000
1028.000	140.000
1029.000	138.000
1030.000	146.000
1031.000	142.000
1032.000	123.000
1033.000	117.000
1034.000	139.000
1035.000	139.000
1036.000	146.000
1037.000	151.000
1038.000	116.000
1039.000	148.000
1040.000	149.000
1041.000	136.000
1042.000	150.000
1043.000	123.000
1044.000	137.000
1045.000	123.000
1046.000	151.000
1047.000	144.000
1048.000	121.000
1049.000	119.000
1050.000	163.000
1051.000	138.000
1052.000	160.000
1053.000	155.000
1054.000	143.000
1055.000	144.000
1056.000	139.000
1057.000	141.000
1058.000	120.000
1059.000	161.000
1060.000	137.000
1061.000	140.000
1062.000	136.000
1063.000	173.000
1064.000	162.000
1065.000	155.000
1066.000	150.000
1067.000	165.000
1068.000	156.000
1069.000	171.000
1070.000	164.000
1071.000	156.000
1072.000	152.000
1073.000	163.000
1074.000	141.000
1075.000	143.000
1076.000	154.000
1077.000	154.000
1078.000	140.000
1079.000	165.000
1080.000	160.000
1081.000	144.000
1082.000	141.000
1083.000	150.000
1084.000	156.000
1085.000	151.000
1086.000	150.000
1087.000	167.000
1088.000	156.000
1089.000	153.000
1090.000	137.000
1091.000	169.000
1092.000	176.000
1093.000	157.000
1094.000	152.000
1095.000	174.000
1096.000	151.000
1097.000	149.000
1098.000	165.000
1099.000	164.000
1100.000	178.000
1101.000	155.000
1102.000	177.000
1103.000	163.000
1104.000	157.000
1105.000	173.000
1106.000	139.000
1107.000	161.000
1108.000	161.000
1109.000	172.000
1110.000	171.000
1111.000	167.000
1112.000	182.000
1113.000	160.000
1114.000	169.000
1115.000	176.000
1116.000	161.000
1117.000	158.000
1118.000	150.000
1119.000	132.000
1120.000	137.000
1121.000	150.000
1122.000	147.000
1123.000	179.000
1124.000	148.000
1125.000	152.000
1126.000	169.000
1127.000	149.000
1128.000	171.000
1129.000	157.000
1130.000	163.000
1131.000	149.000
1132.000	159.000
1133.000	144.000
1134.000	161.000
1135.000	172.000
1136.000	153.000
1137.000	174.000
1138.000	164.000
1139.000	164.000
1140.000	158.000
1141.000	161.000
1142.000	180.000
1143.000	162.000
1144.000	150.000
1145.000	182.000
1146.000	165.000
1147.000	172.000
1148.000	146.000
1149.000	174.000
1150.000	155.000
1151.000	172.000
1152.000	165.000
1153.000	151.000
1154.000	164.000
1155.000	175.000
1156.000	179.000
1157.000	178.000
