Date:	23-Sep-20		Time:	8:53 PM		Version no:	0.00		Project name:	55		Sample name:	222		Section name:	section		Position	866.745018	mm	E0	0.000000	keV	E1	1.000000	keV/channel	sample surface	7.562024	cm	Tube anode:	Mo		Tube voltage:	30	kV	Tube current:	30	mA	gain	15		std. database			resultfile	result		matrix element	11		sample thickness	1.000000		air passage	0.560000	cm	comments	in position		peaking_time	0.300000	m-sec	trigger_threshold	40.000000	V	mca_bin_width	2.000000	no:	number_mca_channels	2048.000000	no:	gap_time	2048.000000	m-sec	trigger_peaking_time	2048.000000	m-sec	GAINDAC	400		HIGHGAIN	400		TAURC	400		RCTAU	400		RCTAUFRAC	400		livetime	13.508211	seconds	runtime	15.000018	seconds	input_count_rate	49567.776705	cps	output_count_rate	44638.079768	cps	triggers	731868	seconds	events_in_run	655225	seconds	channel	content		1.000	0.000
2.000	0.000
3.000	0.000
4.000	0.000
5.000	0.000
6.000	0.000
7.000	0.000
8.000	0.000
9.000	0.000
10.000	0.000
11.000	0.000
12.000	0.000
13.000	0.000
14.000	0.000
15.000	0.000
16.000	0.000
17.000	0.000
18.000	0.000
19.000	0.000
20.000	0.000
21.000	0.000
22.000	0.000
23.000	0.000
24.000	0.000
25.000	0.000
26.000	0.000
27.000	0.000
28.000	0.000
29.000	0.000
30.000	0.000
31.000	0.000
32.000	0.000
33.000	0.000
34.000	0.000
35.000	1.000
36.000	0.000
37.000	0.000
38.000	0.000
39.000	0.000
40.000	2.000
41.000	0.000
42.000	0.000
43.000	0.000
44.000	1.000
45.000	0.000
46.000	0.000
47.000	0.000
48.000	1.000
49.000	1.000
50.000	1.000
51.000	2.000
52.000	1.000
53.000	2.000
54.000	2.000
55.000	4.000
56.000	6.000
57.000	9.000
58.000	7.000
59.000	18.000
60.000	20.000
61.000	23.000
62.000	31.000
63.000	27.000
64.000	34.000
65.000	32.000
66.000	40.000
67.000	21.000
68.000	21.000
69.000	35.000
70.000	25.000
71.000	28.000
72.000	27.000
73.000	25.000
74.000	28.000
75.000	23.000
76.000	21.000
77.000	15.000
78.000	27.000
79.000	32.000
80.000	20.000
81.000	32.000
82.000	28.000
83.000	25.000
84.000	28.000
85.000	28.000
86.000	22.000
87.000	25.000
88.000	34.000
89.000	27.000
90.000	24.000
91.000	22.000
92.000	27.000
93.000	19.000
94.000	26.000
95.000	25.000
96.000	17.000
97.000	22.000
98.000	19.000
99.000	16.000
100.000	21.000
101.000	22.000
102.000	24.000
103.000	22.000
104.000	23.000
105.000	28.000
106.000	19.000
107.000	23.000
108.000	29.000
109.000	23.000
110.000	16.000
111.000	20.000
112.000	13.000
113.000	19.000
114.000	26.000
115.000	20.000
116.000	22.000
117.000	11.000
118.000	16.000
119.000	17.000
120.000	22.000
121.000	17.000
122.000	14.000
123.000	25.000
124.000	19.000
125.000	12.000
126.000	24.000
127.000	16.000
128.000	16.000
129.000	24.000
130.000	21.000
131.000	21.000
132.000	9.000
133.000	21.000
134.000	15.000
135.000	15.000
136.000	11.000
137.000	15.000
138.000	18.000
139.000	8.000
140.000	9.000
141.000	17.000
142.000	21.000
143.000	26.000
144.000	28.000
145.000	27.000
146.000	15.000
147.000	26.000
148.000	21.000
149.000	14.000
150.000	20.000
151.000	22.000
152.000	19.000
153.000	20.000
154.000	19.000
155.000	15.000
156.000	21.000
157.000	14.000
158.000	12.000
159.000	18.000
160.000	13.000
161.000	17.000
162.000	17.000
163.000	15.000
164.000	25.000
165.000	22.000
166.000	25.000
167.000	29.000
168.000	29.000
169.000	41.000
170.000	32.000
171.000	42.000
172.000	52.000
173.000	39.000
174.000	33.000
175.000	40.000
176.000	33.000
177.000	25.000
178.000	26.000
179.000	30.000
180.000	31.000
181.000	42.000
182.000	53.000
183.000	63.000
184.000	92.000
185.000	98.000
186.000	150.000
187.000	176.000
188.000	220.000
189.000	245.000
190.000	299.000
191.000	332.000
192.000	285.000
193.000	263.000
194.000	229.000
195.000	182.000
196.000	131.000
197.000	106.000
198.000	68.000
199.000	46.000
200.000	19.000
201.000	25.000
202.000	18.000
203.000	13.000
204.000	13.000
205.000	21.000
206.000	17.000
207.000	18.000
208.000	12.000
209.000	29.000
210.000	21.000
211.000	23.000
212.000	21.000
213.000	16.000
214.000	18.000
215.000	26.000
216.000	23.000
217.000	28.000
218.000	49.000
219.000	45.000
220.000	43.000
221.000	52.000
222.000	57.000
223.000	59.000
224.000	46.000
225.000	36.000
226.000	43.000
227.000	46.000
228.000	32.000
229.000	38.000
230.000	17.000
231.000	11.000
232.000	24.000
233.000	20.000
234.000	18.000
235.000	13.000
236.000	16.000
237.000	15.000
238.000	15.000
239.000	20.000
240.000	17.000
241.000	20.000
242.000	16.000
243.000	11.000
244.000	22.000
245.000	24.000
246.000	23.000
247.000	22.000
248.000	35.000
249.000	43.000
250.000	73.000
251.000	75.000
252.000	80.000
253.000	97.000
254.000	120.000
255.000	158.000
256.000	175.000
257.000	173.000
258.000	150.000
259.000	153.000
260.000	149.000
261.000	109.000
262.000	90.000
263.000	71.000
264.000	59.000
265.000	30.000
266.000	34.000
267.000	24.000
268.000	23.000
269.000	28.000
270.000	29.000
271.000	22.000
272.000	37.000
273.000	33.000
274.000	29.000
275.000	39.000
276.000	24.000
277.000	36.000
278.000	32.000
279.000	33.000
280.000	20.000
281.000	32.000
282.000	36.000
283.000	48.000
284.000	49.000
285.000	60.000
286.000	67.000
287.000	87.000
288.000	82.000
289.000	94.000
290.000	96.000
291.000	86.000
292.000	80.000
293.000	72.000
294.000	75.000
295.000	48.000
296.000	48.000
297.000	41.000
298.000	29.000
299.000	19.000
300.000	25.000
301.000	27.000
302.000	28.000
303.000	29.000
304.000	19.000
305.000	25.000
306.000	31.000
307.000	27.000
308.000	33.000
309.000	37.000
310.000	30.000
311.000	34.000
312.000	41.000
313.000	43.000
314.000	63.000
315.000	59.000
316.000	62.000
317.000	83.000
318.000	86.000
319.000	110.000
320.000	129.000
321.000	155.000
322.000	164.000
323.000	177.000
324.000	183.000
325.000	174.000
326.000	162.000
327.000	149.000
328.000	155.000
329.000	127.000
330.000	88.000
331.000	82.000
332.000	66.000
333.000	51.000
334.000	50.000
335.000	32.000
336.000	41.000
337.000	45.000
338.000	46.000
339.000	48.000
340.000	48.000
341.000	71.000
342.000	87.000
343.000	84.000
344.000	119.000
345.000	189.000
346.000	228.000
347.000	356.000
348.000	571.000
349.000	916.000
350.000	1445.000
351.000	2302.000
352.000	3397.000
353.000	4996.000
354.000	7338.000
355.000	9909.000
356.000	12836.000
357.000	15948.000
358.000	19298.000
359.000	21837.000
360.000	24036.000
361.000	24983.000
362.000	24675.000
363.000	23740.000
364.000	21106.000
365.000	18105.000
366.000	14959.000
367.000	12038.000
368.000	8930.000
369.000	6504.000
370.000	4359.000
371.000	2784.000
372.000	1864.000
373.000	1098.000
374.000	689.000
375.000	456.000
376.000	279.000
377.000	207.000
378.000	195.000
379.000	184.000
380.000	245.000
381.000	329.000
382.000	446.000
383.000	644.000
384.000	867.000
385.000	1153.000
386.000	1531.000
387.000	1917.000
388.000	2351.000
389.000	2863.000
390.000	3051.000
391.000	3594.000
392.000	3787.000
393.000	3679.000
394.000	3687.000
395.000	3288.000
396.000	3012.000
397.000	2463.000
398.000	2122.000
399.000	1594.000
400.000	1251.000
401.000	856.000
402.000	591.000
403.000	411.000
404.000	259.000
405.000	154.000
406.000	106.000
407.000	57.000
408.000	36.000
409.000	25.000
410.000	12.000
411.000	12.000
412.000	10.000
413.000	10.000
414.000	7.000
415.000	10.000
416.000	8.000
417.000	12.000
418.000	6.000
419.000	8.000
420.000	4.000
421.000	6.000
422.000	10.000
423.000	4.000
424.000	17.000
425.000	10.000
426.000	11.000
427.000	11.000
428.000	12.000
429.000	19.000
430.000	16.000
431.000	22.000
432.000	27.000
433.000	33.000
434.000	66.000
435.000	68.000
436.000	87.000
437.000	106.000
438.000	94.000
439.000	119.000
440.000	106.000
441.000	143.000
442.000	100.000
443.000	106.000
444.000	95.000
445.000	95.000
446.000	84.000
447.000	63.000
448.000	63.000
449.000	52.000
450.000	38.000
451.000	35.000
452.000	40.000
453.000	24.000
454.000	26.000
455.000	21.000
456.000	22.000
457.000	21.000
458.000	24.000
459.000	17.000
460.000	28.000
461.000	17.000
462.000	15.000
463.000	8.000
464.000	12.000
465.000	16.000
466.000	9.000
467.000	14.000
468.000	7.000
469.000	6.000
470.000	14.000
471.000	16.000
472.000	7.000
473.000	20.000
474.000	14.000
475.000	21.000
476.000	20.000
477.000	24.000
478.000	19.000
479.000	28.000
480.000	31.000
481.000	32.000
482.000	35.000
483.000	37.000
484.000	29.000
485.000	40.000
486.000	34.000
487.000	20.000
488.000	18.000
489.000	19.000
490.000	26.000
491.000	12.000
492.000	16.000
493.000	12.000
494.000	13.000
495.000	13.000
496.000	13.000
497.000	16.000
498.000	14.000
499.000	9.000
500.000	7.000
501.000	16.000
502.000	15.000
503.000	16.000
504.000	13.000
505.000	19.000
506.000	16.000
507.000	12.000
508.000	13.000
509.000	10.000
510.000	17.000
511.000	24.000
512.000	16.000
513.000	13.000
514.000	20.000
515.000	19.000
516.000	18.000
517.000	18.000
518.000	18.000
519.000	23.000
520.000	27.000
521.000	24.000
522.000	36.000
523.000	23.000
524.000	37.000
525.000	27.000
526.000	34.000
527.000	50.000
528.000	41.000
529.000	43.000
530.000	40.000
531.000	39.000
532.000	36.000
533.000	33.000
534.000	32.000
535.000	38.000
536.000	30.000
537.000	25.000
538.000	19.000
539.000	25.000
540.000	20.000
541.000	12.000
542.000	19.000
543.000	20.000
544.000	19.000
545.000	16.000
546.000	24.000
547.000	18.000
548.000	27.000
549.000	17.000
550.000	26.000
551.000	27.000
552.000	29.000
553.000	24.000
554.000	28.000
555.000	25.000
556.000	16.000
557.000	22.000
558.000	27.000
559.000	25.000
560.000	32.000
561.000	36.000
562.000	28.000
563.000	26.000
564.000	33.000
565.000	28.000
566.000	36.000
567.000	45.000
568.000	48.000
569.000	51.000
570.000	53.000
571.000	41.000
572.000	77.000
573.000	74.000
574.000	75.000
575.000	79.000
576.000	93.000
577.000	63.000
578.000	87.000
579.000	70.000
580.000	61.000
581.000	58.000
582.000	40.000
583.000	62.000
584.000	44.000
585.000	42.000
586.000	49.000
587.000	37.000
588.000	34.000
589.000	32.000
590.000	21.000
591.000	29.000
592.000	34.000
593.000	28.000
594.000	29.000
595.000	31.000
596.000	26.000
597.000	34.000
598.000	22.000
599.000	29.000
600.000	25.000
601.000	30.000
602.000	27.000
603.000	30.000
604.000	33.000
605.000	35.000
606.000	44.000
607.000	45.000
608.000	66.000
609.000	94.000
610.000	140.000
611.000	163.000
612.000	222.000
613.000	305.000
614.000	399.000
615.000	566.000
616.000	750.000
617.000	969.000
618.000	1074.000
619.000	1424.000
620.000	1658.000
621.000	1899.000
622.000	2094.000
623.000	2303.000
624.000	2390.000
625.000	2539.000
626.000	2496.000
627.000	2395.000
628.000	2190.000
629.000	2071.000
630.000	1774.000
631.000	1547.000
632.000	1378.000
633.000	1040.000
634.000	857.000
635.000	618.000
636.000	493.000
637.000	396.000
638.000	267.000
639.000	215.000
640.000	163.000
641.000	129.000
642.000	86.000
643.000	78.000
644.000	67.000
645.000	51.000
646.000	53.000
647.000	67.000
648.000	53.000
649.000	48.000
650.000	53.000
651.000	54.000
652.000	30.000
653.000	60.000
654.000	41.000
655.000	48.000
656.000	50.000
657.000	47.000
658.000	57.000
659.000	65.000
660.000	48.000
661.000	48.000
662.000	43.000
663.000	57.000
664.000	49.000
665.000	60.000
666.000	58.000
667.000	64.000
668.000	53.000
669.000	63.000
670.000	51.000
671.000	84.000
672.000	71.000
673.000	71.000
674.000	90.000
675.000	99.000
676.000	108.000
677.000	148.000
678.000	144.000
679.000	172.000
680.000	209.000
681.000	227.000
682.000	255.000
683.000	317.000
684.000	339.000
685.000	372.000
686.000	388.000
687.000	435.000
688.000	483.000
689.000	413.000
690.000	408.000
691.000	420.000
692.000	384.000
693.000	420.000
694.000	376.000
695.000	328.000
696.000	251.000
697.000	228.000
698.000	195.000
699.000	177.000
700.000	142.000
701.000	116.000
702.000	104.000
703.000	92.000
704.000	85.000
705.000	75.000
706.000	66.000
707.000	68.000
708.000	61.000
709.000	57.000
710.000	50.000
711.000	60.000
712.000	51.000
713.000	60.000
714.000	56.000
715.000	72.000
716.000	73.000
717.000	74.000
718.000	81.000
719.000	79.000
720.000	82.000
721.000	100.000
722.000	101.000
723.000	105.000
724.000	93.000
725.000	102.000
726.000	84.000
727.000	104.000
728.000	85.000
729.000	93.000
730.000	81.000
731.000	98.000
732.000	61.000
733.000	94.000
734.000	67.000
735.000	82.000
736.000	86.000
737.000	95.000
738.000	74.000
739.000	68.000
740.000	59.000
741.000	70.000
742.000	71.000
743.000	74.000
744.000	71.000
745.000	69.000
746.000	64.000
747.000	70.000
748.000	59.000
749.000	74.000
750.000	54.000
751.000	72.000
752.000	65.000
753.000	58.000
754.000	84.000
755.000	73.000
756.000	78.000
757.000	72.000
758.000	68.000
759.000	62.000
760.000	65.000
761.000	77.000
762.000	61.000
763.000	61.000
764.000	77.000
765.000	78.000
766.000	82.000
767.000	60.000
768.000	71.000
769.000	62.000
770.000	63.000
771.000	70.000
772.000	77.000
773.000	77.000
774.000	76.000
775.000	86.000
776.000	88.000
777.000	88.000
778.000	106.000
779.000	115.000
780.000	95.000
781.000	103.000
782.000	100.000
783.000	104.000
784.000	107.000
785.000	114.000
786.000	118.000
787.000	132.000
788.000	137.000
789.000	135.000
790.000	126.000
791.000	117.000
792.000	142.000
793.000	148.000
794.000	149.000
795.000	115.000
796.000	140.000
797.000	116.000
798.000	124.000
799.000	131.000
800.000	129.000
801.000	149.000
802.000	144.000
803.000	156.000
804.000	170.000
805.000	134.000
806.000	173.000
807.000	167.000
808.000	167.000
809.000	174.000
810.000	181.000
811.000	207.000
812.000	240.000
813.000	206.000
814.000	250.000
815.000	285.000
816.000	293.000
817.000	295.000
818.000	314.000
819.000	314.000
820.000	310.000
821.000	296.000
822.000	310.000
823.000	271.000
824.000	265.000
825.000	249.000
826.000	228.000
827.000	217.000
828.000	220.000
829.000	193.000
830.000	157.000
831.000	167.000
832.000	149.000
833.000	150.000
834.000	119.000
835.000	113.000
836.000	138.000
837.000	126.000
838.000	126.000
839.000	111.000
840.000	96.000
841.000	116.000
842.000	138.000
843.000	112.000
844.000	131.000
845.000	114.000
846.000	108.000
847.000	123.000
848.000	145.000
849.000	121.000
850.000	128.000
851.000	114.000
852.000	133.000
853.000	99.000
854.000	104.000
855.000	136.000
856.000	108.000
857.000	113.000
858.000	99.000
859.000	94.000
860.000	118.000
861.000	100.000
862.000	98.000
863.000	112.000
864.000	115.000
865.000	106.000
866.000	111.000
867.000	113.000
868.000	121.000
869.000	105.000
870.000	108.000
871.000	122.000
872.000	134.000
873.000	108.000
874.000	113.000
875.000	112.000
876.000	119.000
877.000	100.000
878.000	114.000
879.000	93.000
880.000	112.000
881.000	120.000
882.000	119.000
883.000	123.000
884.000	88.000
885.000	117.000
886.000	117.000
887.000	114.000
888.000	105.000
889.000	107.000
890.000	118.000
891.000	111.000
892.000	98.000
893.000	129.000
894.000	134.000
895.000	91.000
896.000	128.000
897.000	143.000
898.000	153.000
899.000	145.000
900.000	143.000
901.000	142.000
902.000	116.000
903.000	139.000
904.000	147.000
905.000	150.000
906.000	131.000
907.000	126.000
908.000	155.000
909.000	168.000
910.000	143.000
911.000	167.000
912.000	162.000
913.000	173.000
914.000	174.000
915.000	163.000
916.000	166.000
917.000	167.000
918.000	148.000
919.000	166.000
920.000	163.000
921.000	156.000
922.000	172.000
923.000	176.000
924.000	190.000
925.000	181.000
926.000	190.000
927.000	197.000
928.000	179.000
929.000	188.000
930.000	184.000
931.000	199.000
932.000	204.000
933.000	212.000
934.000	222.000
935.000	210.000
936.000	215.000
937.000	228.000
938.000	243.000
939.000	238.000
940.000	259.000
941.000	248.000
942.000	286.000
943.000	244.000
944.000	251.000
945.000	254.000
946.000	251.000
947.000	254.000
948.000	241.000
949.000	256.000
950.000	207.000
951.000	201.000
952.000	257.000
953.000	217.000
954.000	190.000
955.000	164.000
956.000	180.000
957.000	212.000
958.000	174.000
959.000	162.000
960.000	164.000
961.000	170.000
962.000	163.000
963.000	149.000
964.000	197.000
965.000	182.000
966.000	184.000
967.000	173.000
968.000	185.000
969.000	181.000
970.000	194.000
971.000	163.000
972.000	194.000
973.000	201.000
974.000	181.000
975.000	173.000
976.000	152.000
977.000	171.000
978.000	173.000
979.000	170.000
980.000	166.000
981.000	171.000
982.000	169.000
983.000	152.000
984.000	142.000
985.000	153.000
986.000	146.000
987.000	159.000
988.000	132.000
989.000	109.000
990.000	139.000
991.000	148.000
992.000	161.000
993.000	139.000
994.000	159.000
995.000	126.000
996.000	124.000
997.000	122.000
998.000	122.000
999.000	137.000
1000.000	140.000
1001.000	143.000
1002.000	121.000
1003.000	126.000
1004.000	110.000
1005.000	133.000
1006.000	147.000
1007.000	130.000
1008.000	143.000
1009.000	134.000
1010.000	122.000
1011.000	146.000
1012.000	113.000
1013.000	124.000
1014.000	146.000
1015.000	130.000
1016.000	121.000
1017.000	114.000
1018.000	117.000
1019.000	144.000
1020.000	147.000
1021.000	138.000
1022.000	138.000
1023.000	150.000
1024.000	120.000
1025.000	141.000
1026.000	134.000
1027.000	137.000
1028.000	130.000
1029.000	142.000
1030.000	130.000
1031.000	142.000
1032.000	129.000
1033.000	138.000
1034.000	128.000
1035.000	136.000
1036.000	125.000
1037.000	135.000
1038.000	144.000
1039.000	129.000
1040.000	155.000
1041.000	154.000
1042.000	159.000
1043.000	124.000
1044.000	142.000
1045.000	142.000
1046.000	152.000
1047.000	152.000
1048.000	163.000
1049.000	168.000
1050.000	138.000
1051.000	160.000
1052.000	169.000
1053.000	166.000
1054.000	159.000
1055.000	159.000
1056.000	158.000
1057.000	138.000
1058.000	155.000
1059.000	158.000
1060.000	164.000
1061.000	178.000
1062.000	164.000
1063.000	165.000
1064.000	163.000
1065.000	165.000
1066.000	183.000
1067.000	165.000
1068.000	171.000
1069.000	153.000
1070.000	163.000
1071.000	137.000
1072.000	170.000
1073.000	146.000
1074.000	145.000
1075.000	156.000
1076.000	136.000
1077.000	163.000
1078.000	167.000
1079.000	145.000
1080.000	144.000
1081.000	162.000
1082.000	139.000
1083.000	174.000
1084.000	156.000
1085.000	176.000
1086.000	163.000
1087.000	157.000
1088.000	176.000
1089.000	170.000
1090.000	144.000
1091.000	161.000
1092.000	157.000
1093.000	136.000
1094.000	168.000
1095.000	150.000
1096.000	166.000
1097.000	175.000
1098.000	159.000
1099.000	147.000
1100.000	158.000
1101.000	185.000
1102.000	176.000
1103.000	154.000
1104.000	156.000
1105.000	182.000
1106.000	159.000
1107.000	167.000
1108.000	196.000
1109.000	155.000
1110.000	158.000
1111.000	166.000
1112.000	151.000
1113.000	152.000
1114.000	142.000
1115.000	185.000
1116.000	173.000
1117.000	153.000
1118.000	151.000
1119.000	157.000
1120.000	156.000
1121.000	168.000
1122.000	158.000
1123.000	147.000
1124.000	172.000
1125.000	136.000
1126.000	165.000
1127.000	180.000
1128.000	171.000
1129.000	138.000
1130.000	147.000
1131.000	171.000
1132.000	166.000
1133.000	161.000
1134.000	175.000
1135.000	149.000
1136.000	142.000
1137.000	171.000
1138.000	157.000
1139.000	149.000
1140.000	157.000
1141.000	159.000
1142.000	157.000
1143.000	178.000
1144.000	176.000
1145.000	173.000
1146.000	163.000
1147.000	166.000
1148.000	166.000
1149.000	161.000
1150.000	176.000
1151.000	164.000
1152.000	184.000
1153.000	184.000
1154.000	159.000
1155.000	179.000
1156.000	155.000
1157.000	184.000
1158.000	182.000
1159.000	186.000
