Date:	23-Sep-20		Time:	6:23 PM		Version no:	0.00		Project name:	55		Sample name:	222		Section name:	section		Position	305.745018	mm	E0	0.000000	keV	E1	1.000000	keV/channel	sample surface	7.653921	cm	Tube anode:	Mo		Tube voltage:	30	kV	Tube current:	30	mA	gain	15		std. database			resultfile	result		matrix element	11		sample thickness	1.000000		air passage	0.560000	cm	comments	in position		peaking_time	0.300000	m-sec	trigger_threshold	40.000000	V	mca_bin_width	2.000000	no:	number_mca_channels	2048.000000	no:	gap_time	2048.000000	m-sec	trigger_peaking_time	2048.000000	m-sec	GAINDAC	400		HIGHGAIN	400		TAURC	400		RCTAU	400		RCTAUFRAC	400		livetime	13.490986	seconds	runtime	15.000014	seconds	input_count_rate	50058.832422	cps	output_count_rate	45022.823145	cps	triggers	739067	seconds	events_in_run	660958	seconds	channel	content		1.000	0.000
2.000	0.000
3.000	0.000
4.000	0.000
5.000	0.000
6.000	0.000
7.000	0.000
8.000	0.000
9.000	0.000
10.000	0.000
11.000	0.000
12.000	0.000
13.000	0.000
14.000	0.000
15.000	0.000
16.000	0.000
17.000	0.000
18.000	0.000
19.000	0.000
20.000	0.000
21.000	0.000
22.000	0.000
23.000	0.000
24.000	0.000
25.000	0.000
26.000	0.000
27.000	0.000
28.000	0.000
29.000	0.000
30.000	0.000
31.000	0.000
32.000	0.000
33.000	0.000
34.000	0.000
35.000	0.000
36.000	1.000
37.000	0.000
38.000	1.000
39.000	0.000
40.000	1.000
41.000	1.000
42.000	0.000
43.000	1.000
44.000	0.000
45.000	1.000
46.000	1.000
47.000	1.000
48.000	0.000
49.000	0.000
50.000	2.000
51.000	1.000
52.000	1.000
53.000	2.000
54.000	2.000
55.000	3.000
56.000	5.000
57.000	14.000
58.000	8.000
59.000	24.000
60.000	14.000
61.000	32.000
62.000	36.000
63.000	35.000
64.000	31.000
65.000	36.000
66.000	22.000
67.000	22.000
68.000	24.000
69.000	26.000
70.000	22.000
71.000	23.000
72.000	30.000
73.000	24.000
74.000	28.000
75.000	21.000
76.000	29.000
77.000	22.000
78.000	20.000
79.000	28.000
80.000	26.000
81.000	23.000
82.000	28.000
83.000	26.000
84.000	35.000
85.000	33.000
86.000	33.000
87.000	27.000
88.000	30.000
89.000	34.000
90.000	20.000
91.000	20.000
92.000	31.000
93.000	18.000
94.000	22.000
95.000	21.000
96.000	21.000
97.000	24.000
98.000	25.000
99.000	19.000
100.000	28.000
101.000	18.000
102.000	20.000
103.000	25.000
104.000	18.000
105.000	25.000
106.000	17.000
107.000	18.000
108.000	23.000
109.000	18.000
110.000	22.000
111.000	27.000
112.000	21.000
113.000	24.000
114.000	20.000
115.000	24.000
116.000	20.000
117.000	19.000
118.000	24.000
119.000	23.000
120.000	25.000
121.000	14.000
122.000	26.000
123.000	20.000
124.000	15.000
125.000	18.000
126.000	22.000
127.000	17.000
128.000	23.000
129.000	24.000
130.000	17.000
131.000	11.000
132.000	16.000
133.000	16.000
134.000	19.000
135.000	16.000
136.000	12.000
137.000	21.000
138.000	20.000
139.000	7.000
140.000	14.000
141.000	27.000
142.000	30.000
143.000	24.000
144.000	19.000
145.000	22.000
146.000	27.000
147.000	24.000
148.000	23.000
149.000	22.000
150.000	16.000
151.000	14.000
152.000	21.000
153.000	14.000
154.000	21.000
155.000	19.000
156.000	9.000
157.000	17.000
158.000	20.000
159.000	16.000
160.000	14.000
161.000	12.000
162.000	16.000
163.000	24.000
164.000	13.000
165.000	23.000
166.000	18.000
167.000	26.000
168.000	41.000
169.000	33.000
170.000	26.000
171.000	29.000
172.000	31.000
173.000	30.000
174.000	31.000
175.000	30.000
176.000	16.000
177.000	29.000
178.000	22.000
179.000	36.000
180.000	35.000
181.000	35.000
182.000	50.000
183.000	50.000
184.000	87.000
185.000	127.000
186.000	141.000
187.000	183.000
188.000	256.000
189.000	260.000
190.000	302.000
191.000	335.000
192.000	291.000
193.000	290.000
194.000	250.000
195.000	185.000
196.000	152.000
197.000	94.000
198.000	73.000
199.000	44.000
200.000	41.000
201.000	28.000
202.000	21.000
203.000	19.000
204.000	15.000
205.000	20.000
206.000	18.000
207.000	13.000
208.000	18.000
209.000	19.000
210.000	20.000
211.000	21.000
212.000	18.000
213.000	27.000
214.000	31.000
215.000	23.000
216.000	32.000
217.000	34.000
218.000	40.000
219.000	39.000
220.000	32.000
221.000	45.000
222.000	76.000
223.000	57.000
224.000	63.000
225.000	54.000
226.000	47.000
227.000	47.000
228.000	32.000
229.000	37.000
230.000	30.000
231.000	23.000
232.000	17.000
233.000	26.000
234.000	21.000
235.000	12.000
236.000	15.000
237.000	10.000
238.000	16.000
239.000	22.000
240.000	18.000
241.000	15.000
242.000	21.000
243.000	26.000
244.000	11.000
245.000	15.000
246.000	22.000
247.000	33.000
248.000	30.000
249.000	48.000
250.000	57.000
251.000	81.000
252.000	107.000
253.000	140.000
254.000	165.000
255.000	191.000
256.000	193.000
257.000	197.000
258.000	217.000
259.000	185.000
260.000	183.000
261.000	117.000
262.000	107.000
263.000	81.000
264.000	53.000
265.000	47.000
266.000	41.000
267.000	41.000
268.000	25.000
269.000	31.000
270.000	29.000
271.000	24.000
272.000	28.000
273.000	41.000
274.000	41.000
275.000	37.000
276.000	37.000
277.000	40.000
278.000	26.000
279.000	31.000
280.000	29.000
281.000	45.000
282.000	41.000
283.000	34.000
284.000	39.000
285.000	52.000
286.000	66.000
287.000	71.000
288.000	74.000
289.000	61.000
290.000	90.000
291.000	87.000
292.000	84.000
293.000	85.000
294.000	57.000
295.000	45.000
296.000	44.000
297.000	45.000
298.000	47.000
299.000	21.000
300.000	24.000
301.000	24.000
302.000	26.000
303.000	22.000
304.000	25.000
305.000	34.000
306.000	24.000
307.000	34.000
308.000	37.000
309.000	27.000
310.000	36.000
311.000	40.000
312.000	36.000
313.000	46.000
314.000	53.000
315.000	54.000
316.000	63.000
317.000	59.000
318.000	72.000
319.000	93.000
320.000	106.000
321.000	123.000
322.000	125.000
323.000	148.000
324.000	152.000
325.000	160.000
326.000	145.000
327.000	132.000
328.000	136.000
329.000	108.000
330.000	82.000
331.000	55.000
332.000	46.000
333.000	46.000
334.000	41.000
335.000	40.000
336.000	43.000
337.000	34.000
338.000	34.000
339.000	45.000
340.000	50.000
341.000	53.000
342.000	63.000
343.000	84.000
344.000	118.000
345.000	176.000
346.000	255.000
347.000	371.000
348.000	618.000
349.000	898.000
350.000	1563.000
351.000	2339.000
352.000	3600.000
353.000	5182.000
354.000	7475.000
355.000	10227.000
356.000	13494.000
357.000	16790.000
358.000	20209.000
359.000	22939.000
360.000	25073.000
361.000	26103.000
362.000	26088.000
363.000	24852.000
364.000	22184.000
365.000	19217.000
366.000	15963.000
367.000	12666.000
368.000	9287.000
369.000	6756.000
370.000	4480.000
371.000	2961.000
372.000	1850.000
373.000	1164.000
374.000	736.000
375.000	466.000
376.000	327.000
377.000	236.000
378.000	212.000
379.000	232.000
380.000	289.000
381.000	331.000
382.000	454.000
383.000	646.000
384.000	928.000
385.000	1146.000
386.000	1526.000
387.000	2034.000
388.000	2478.000
389.000	2782.000
390.000	3354.000
391.000	3640.000
392.000	3864.000
393.000	3851.000
394.000	3749.000
395.000	3596.000
396.000	3164.000
397.000	2712.000
398.000	2135.000
399.000	1702.000
400.000	1290.000
401.000	885.000
402.000	653.000
403.000	420.000
404.000	260.000
405.000	167.000
406.000	105.000
407.000	64.000
408.000	36.000
409.000	22.000
410.000	14.000
411.000	12.000
412.000	12.000
413.000	10.000
414.000	8.000
415.000	6.000
416.000	8.000
417.000	5.000
418.000	7.000
419.000	5.000
420.000	6.000
421.000	7.000
422.000	8.000
423.000	7.000
424.000	9.000
425.000	11.000
426.000	10.000
427.000	6.000
428.000	10.000
429.000	24.000
430.000	10.000
431.000	18.000
432.000	24.000
433.000	30.000
434.000	28.000
435.000	54.000
436.000	63.000
437.000	71.000
438.000	86.000
439.000	82.000
440.000	95.000
441.000	92.000
442.000	85.000
443.000	75.000
444.000	64.000
445.000	57.000
446.000	56.000
447.000	42.000
448.000	31.000
449.000	35.000
450.000	31.000
451.000	31.000
452.000	20.000
453.000	19.000
454.000	22.000
455.000	17.000
456.000	22.000
457.000	20.000
458.000	26.000
459.000	18.000
460.000	20.000
461.000	16.000
462.000	10.000
463.000	14.000
464.000	12.000
465.000	11.000
466.000	6.000
467.000	17.000
468.000	11.000
469.000	12.000
470.000	7.000
471.000	18.000
472.000	16.000
473.000	12.000
474.000	22.000
475.000	12.000
476.000	16.000
477.000	18.000
478.000	27.000
479.000	23.000
480.000	27.000
481.000	23.000
482.000	26.000
483.000	25.000
484.000	18.000
485.000	27.000
486.000	24.000
487.000	20.000
488.000	25.000
489.000	23.000
490.000	23.000
491.000	8.000
492.000	12.000
493.000	17.000
494.000	14.000
495.000	9.000
496.000	13.000
497.000	15.000
498.000	19.000
499.000	15.000
500.000	13.000
501.000	8.000
502.000	14.000
503.000	15.000
504.000	16.000
505.000	16.000
506.000	7.000
507.000	14.000
508.000	15.000
509.000	18.000
510.000	21.000
511.000	10.000
512.000	13.000
513.000	23.000
514.000	20.000
515.000	19.000
516.000	29.000
517.000	21.000
518.000	25.000
519.000	24.000
520.000	21.000
521.000	26.000
522.000	36.000
523.000	29.000
524.000	41.000
525.000	34.000
526.000	30.000
527.000	42.000
528.000	35.000
529.000	51.000
530.000	46.000
531.000	36.000
532.000	33.000
533.000	38.000
534.000	36.000
535.000	33.000
536.000	28.000
537.000	24.000
538.000	25.000
539.000	15.000
540.000	25.000
541.000	24.000
542.000	29.000
543.000	21.000
544.000	11.000
545.000	16.000
546.000	15.000
547.000	19.000
548.000	18.000
549.000	22.000
550.000	21.000
551.000	22.000
552.000	15.000
553.000	27.000
554.000	26.000
555.000	22.000
556.000	29.000
557.000	29.000
558.000	31.000
559.000	29.000
560.000	37.000
561.000	24.000
562.000	24.000
563.000	32.000
564.000	29.000
565.000	46.000
566.000	41.000
567.000	35.000
568.000	50.000
569.000	50.000
570.000	53.000
571.000	53.000
572.000	51.000
573.000	53.000
574.000	65.000
575.000	69.000
576.000	71.000
577.000	73.000
578.000	74.000
579.000	54.000
580.000	55.000
581.000	55.000
582.000	62.000
583.000	52.000
584.000	47.000
585.000	40.000
586.000	32.000
587.000	28.000
588.000	26.000
589.000	28.000
590.000	31.000
591.000	36.000
592.000	26.000
593.000	16.000
594.000	21.000
595.000	24.000
596.000	20.000
597.000	29.000
598.000	22.000
599.000	21.000
600.000	24.000
601.000	23.000
602.000	29.000
603.000	29.000
604.000	25.000
605.000	34.000
606.000	39.000
607.000	42.000
608.000	47.000
609.000	58.000
610.000	89.000
611.000	103.000
612.000	164.000
613.000	213.000
614.000	281.000
615.000	390.000
616.000	467.000
617.000	647.000
618.000	774.000
619.000	1024.000
620.000	1121.000
621.000	1350.000
622.000	1496.000
623.000	1619.000
624.000	1665.000
625.000	1707.000
626.000	1784.000
627.000	1554.000
628.000	1593.000
629.000	1369.000
630.000	1227.000
631.000	1100.000
632.000	894.000
633.000	716.000
634.000	624.000
635.000	454.000
636.000	334.000
637.000	258.000
638.000	199.000
639.000	173.000
640.000	118.000
641.000	98.000
642.000	80.000
643.000	47.000
644.000	57.000
645.000	46.000
646.000	59.000
647.000	34.000
648.000	49.000
649.000	57.000
650.000	51.000
651.000	42.000
652.000	42.000
653.000	57.000
654.000	39.000
655.000	44.000
656.000	47.000
657.000	48.000
658.000	49.000
659.000	66.000
660.000	41.000
661.000	51.000
662.000	61.000
663.000	50.000
664.000	45.000
665.000	76.000
666.000	54.000
667.000	65.000
668.000	44.000
669.000	57.000
670.000	77.000
671.000	74.000
672.000	77.000
673.000	87.000
674.000	78.000
675.000	91.000
676.000	96.000
677.000	112.000
678.000	111.000
679.000	136.000
680.000	161.000
681.000	158.000
682.000	194.000
683.000	205.000
684.000	232.000
685.000	278.000
686.000	291.000
687.000	269.000
688.000	325.000
689.000	341.000
690.000	327.000
691.000	331.000
692.000	276.000
693.000	263.000
694.000	258.000
695.000	232.000
696.000	173.000
697.000	163.000
698.000	140.000
699.000	112.000
700.000	119.000
701.000	111.000
702.000	99.000
703.000	92.000
704.000	66.000
705.000	79.000
706.000	89.000
707.000	55.000
708.000	69.000
709.000	54.000
710.000	64.000
711.000	63.000
712.000	68.000
713.000	64.000
714.000	50.000
715.000	78.000
716.000	80.000
717.000	85.000
718.000	73.000
719.000	80.000
720.000	88.000
721.000	94.000
722.000	88.000
723.000	79.000
724.000	94.000
725.000	90.000
726.000	105.000
727.000	100.000
728.000	84.000
729.000	91.000
730.000	98.000
731.000	92.000
732.000	103.000
733.000	75.000
734.000	88.000
735.000	76.000
736.000	72.000
737.000	77.000
738.000	70.000
739.000	69.000
740.000	73.000
741.000	61.000
742.000	62.000
743.000	69.000
744.000	72.000
745.000	75.000
746.000	78.000
747.000	64.000
748.000	73.000
749.000	78.000
750.000	92.000
751.000	68.000
752.000	62.000
753.000	65.000
754.000	86.000
755.000	67.000
756.000	69.000
757.000	80.000
758.000	62.000
759.000	77.000
760.000	93.000
761.000	52.000
762.000	72.000
763.000	72.000
764.000	65.000
765.000	70.000
766.000	72.000
767.000	66.000
768.000	73.000
769.000	67.000
770.000	59.000
771.000	67.000
772.000	80.000
773.000	89.000
774.000	85.000
775.000	68.000
776.000	84.000
777.000	92.000
778.000	94.000
779.000	82.000
780.000	97.000
781.000	92.000
782.000	110.000
783.000	126.000
784.000	119.000
785.000	123.000
786.000	112.000
787.000	110.000
788.000	99.000
789.000	151.000
790.000	122.000
791.000	146.000
792.000	135.000
793.000	144.000
794.000	137.000
795.000	143.000
796.000	133.000
797.000	131.000
798.000	158.000
799.000	122.000
800.000	151.000
801.000	159.000
802.000	131.000
803.000	147.000
804.000	139.000
805.000	149.000
806.000	165.000
807.000	182.000
808.000	210.000
809.000	154.000
810.000	189.000
811.000	223.000
812.000	197.000
813.000	245.000
814.000	257.000
815.000	294.000
816.000	291.000
817.000	269.000
818.000	295.000
819.000	309.000
820.000	313.000
821.000	309.000
822.000	297.000
823.000	288.000
824.000	286.000
825.000	254.000
826.000	251.000
827.000	210.000
828.000	211.000
829.000	198.000
830.000	179.000
831.000	167.000
832.000	133.000
833.000	145.000
834.000	131.000
835.000	132.000
836.000	112.000
837.000	136.000
838.000	126.000
839.000	125.000
840.000	113.000
841.000	132.000
842.000	115.000
843.000	129.000
844.000	118.000
845.000	127.000
846.000	119.000
847.000	108.000
848.000	116.000
849.000	125.000
850.000	126.000
851.000	117.000
852.000	131.000
853.000	134.000
854.000	111.000
855.000	137.000
856.000	101.000
857.000	125.000
858.000	124.000
859.000	114.000
860.000	124.000
861.000	100.000
862.000	98.000
863.000	124.000
864.000	116.000
865.000	120.000
866.000	109.000
867.000	139.000
868.000	110.000
869.000	109.000
870.000	90.000
871.000	116.000
872.000	116.000
873.000	106.000
874.000	100.000
875.000	86.000
876.000	136.000
877.000	121.000
878.000	119.000
879.000	127.000
880.000	119.000
881.000	97.000
882.000	113.000
883.000	127.000
884.000	123.000
885.000	105.000
886.000	112.000
887.000	102.000
888.000	114.000
889.000	131.000
890.000	109.000
891.000	132.000
892.000	140.000
893.000	129.000
894.000	118.000
895.000	126.000
896.000	128.000
897.000	151.000
898.000	132.000
899.000	144.000
900.000	131.000
901.000	138.000
902.000	153.000
903.000	168.000
904.000	145.000
905.000	162.000
906.000	160.000
907.000	156.000
908.000	169.000
909.000	177.000
910.000	173.000
911.000	189.000
912.000	178.000
913.000	175.000
914.000	153.000
915.000	174.000
916.000	158.000
917.000	147.000
918.000	171.000
919.000	172.000
920.000	179.000
921.000	194.000
922.000	186.000
923.000	161.000
924.000	171.000
925.000	185.000
926.000	178.000
927.000	206.000
928.000	186.000
929.000	199.000
930.000	192.000
931.000	211.000
932.000	186.000
933.000	200.000
934.000	227.000
935.000	212.000
936.000	259.000
937.000	232.000
938.000	213.000
939.000	244.000
940.000	244.000
941.000	275.000
942.000	275.000
943.000	250.000
944.000	258.000
945.000	253.000
946.000	279.000
947.000	254.000
948.000	210.000
949.000	241.000
950.000	256.000
951.000	200.000
952.000	200.000
953.000	204.000
954.000	213.000
955.000	199.000
956.000	176.000
957.000	175.000
958.000	187.000
959.000	186.000
960.000	186.000
961.000	212.000
962.000	204.000
963.000	196.000
964.000	198.000
965.000	181.000
966.000	174.000
967.000	187.000
968.000	197.000
969.000	190.000
970.000	171.000
971.000	173.000
972.000	197.000
973.000	194.000
974.000	156.000
975.000	161.000
976.000	179.000
977.000	178.000
978.000	190.000
979.000	150.000
980.000	159.000
981.000	156.000
982.000	139.000
983.000	140.000
984.000	156.000
985.000	151.000
986.000	149.000
987.000	150.000
988.000	159.000
989.000	159.000
990.000	141.000
991.000	145.000
992.000	137.000
993.000	142.000
994.000	142.000
995.000	144.000
996.000	122.000
997.000	133.000
998.000	118.000
999.000	125.000
1000.000	143.000
1001.000	150.000
1002.000	140.000
1003.000	144.000
1004.000	138.000
1005.000	119.000
1006.000	127.000
1007.000	141.000
1008.000	142.000
1009.000	132.000
1010.000	164.000
1011.000	126.000
1012.000	121.000
1013.000	125.000
1014.000	136.000
1015.000	140.000
1016.000	127.000
1017.000	117.000
1018.000	138.000
1019.000	125.000
1020.000	164.000
1021.000	140.000
1022.000	142.000
1023.000	124.000
1024.000	133.000
1025.000	135.000
1026.000	133.000
1027.000	150.000
1028.000	131.000
1029.000	148.000
1030.000	140.000
1031.000	138.000
1032.000	146.000
1033.000	129.000
1034.000	148.000
1035.000	132.000
1036.000	175.000
1037.000	117.000
1038.000	153.000
1039.000	126.000
1040.000	165.000
1041.000	134.000
1042.000	142.000
1043.000	136.000
1044.000	151.000
1045.000	147.000
1046.000	147.000
1047.000	151.000
1048.000	153.000
1049.000	149.000
1050.000	154.000
1051.000	164.000
1052.000	167.000
1053.000	153.000
1054.000	181.000
1055.000	164.000
1056.000	167.000
1057.000	162.000
1058.000	161.000
1059.000	157.000
1060.000	171.000
1061.000	155.000
1062.000	176.000
1063.000	157.000
1064.000	171.000
1065.000	161.000
1066.000	148.000
1067.000	143.000
1068.000	163.000
1069.000	163.000
1070.000	153.000
1071.000	186.000
1072.000	155.000
1073.000	152.000
1074.000	151.000
1075.000	149.000
1076.000	180.000
1077.000	162.000
1078.000	163.000
1079.000	175.000
1080.000	179.000
1081.000	142.000
1082.000	170.000
1083.000	174.000
1084.000	147.000
1085.000	132.000
1086.000	158.000
1087.000	160.000
1088.000	159.000
1089.000	155.000
1090.000	163.000
1091.000	171.000
1092.000	157.000
1093.000	175.000
1094.000	191.000
1095.000	188.000
1096.000	150.000
1097.000	171.000
1098.000	183.000
1099.000	161.000
1100.000	187.000
1101.000	190.000
1102.000	170.000
1103.000	181.000
1104.000	152.000
1105.000	181.000
1106.000	185.000
1107.000	160.000
1108.000	147.000
1109.000	167.000
1110.000	143.000
1111.000	186.000
1112.000	163.000
1113.000	146.000
1114.000	167.000
1115.000	167.000
1116.000	164.000
1117.000	189.000
1118.000	147.000
1119.000	168.000
1120.000	165.000
1121.000	160.000
1122.000	147.000
1123.000	163.000
1124.000	157.000
1125.000	156.000
1126.000	180.000
1127.000	168.000
1128.000	167.000
1129.000	162.000
1130.000	166.000
1131.000	164.000
1132.000	161.000
1133.000	155.000
1134.000	182.000
1135.000	160.000
1136.000	163.000
1137.000	133.000
1138.000	162.000
1139.000	177.000
1140.000	166.000
1141.000	168.000
1142.000	176.000
1143.000	138.000
1144.000	135.000
1145.000	187.000
1146.000	186.000
1147.000	174.000
1148.000	150.000
1149.000	163.000
1150.000	170.000
1151.000	181.000
1152.000	178.000
1153.000	193.000
1154.000	187.000
1155.000	152.000
1156.000	183.000
1157.000	185.000
1158.000	189.000
1159.000	183.000
