Date:	23-Sep-20		Time:	9:41 PM		Version no:	0.00		Project name:	55		Sample name:	222		Section name:	section		Position	1049.745018	mm	E0	0.000000	keV	E1	1.000000	keV/channel	sample surface	7.383264	cm	Tube anode:	Mo		Tube voltage:	30	kV	Tube current:	30	mA	gain	15		std. database			resultfile	result		matrix element	11		sample thickness	1.000000		air passage	0.560000	cm	comments	in position		peaking_time	0.300000	m-sec	trigger_threshold	40.000000	V	mca_bin_width	2.000000	no:	number_mca_channels	2048.000000	no:	gap_time	2048.000000	m-sec	trigger_peaking_time	2048.000000	m-sec	GAINDAC	400		HIGHGAIN	400		TAURC	400		RCTAU	400		RCTAUFRAC	400		livetime	13.519106	seconds	runtime	15.000249	seconds	input_count_rate	49856.255000	cps	output_count_rate	44933.385941	cps	triggers	736060	seconds	events_in_run	659787	seconds	channel	content		1.000	0.000
2.000	0.000
3.000	0.000
4.000	0.000
5.000	0.000
6.000	0.000
7.000	0.000
8.000	0.000
9.000	0.000
10.000	0.000
11.000	0.000
12.000	0.000
13.000	0.000
14.000	0.000
15.000	0.000
16.000	0.000
17.000	0.000
18.000	0.000
19.000	0.000
20.000	0.000
21.000	0.000
22.000	0.000
23.000	0.000
24.000	0.000
25.000	0.000
26.000	0.000
27.000	0.000
28.000	0.000
29.000	0.000
30.000	0.000
31.000	0.000
32.000	0.000
33.000	0.000
34.000	0.000
35.000	2.000
36.000	1.000
37.000	0.000
38.000	0.000
39.000	1.000
40.000	2.000
41.000	0.000
42.000	1.000
43.000	1.000
44.000	0.000
45.000	0.000
46.000	1.000
47.000	2.000
48.000	0.000
49.000	3.000
50.000	2.000
51.000	0.000
52.000	1.000
53.000	5.000
54.000	2.000
55.000	2.000
56.000	8.000
57.000	6.000
58.000	8.000
59.000	23.000
60.000	17.000
61.000	33.000
62.000	40.000
63.000	47.000
64.000	30.000
65.000	22.000
66.000	24.000
67.000	21.000
68.000	24.000
69.000	24.000
70.000	27.000
71.000	21.000
72.000	19.000
73.000	18.000
74.000	14.000
75.000	31.000
76.000	21.000
77.000	19.000
78.000	18.000
79.000	22.000
80.000	21.000
81.000	21.000
82.000	20.000
83.000	17.000
84.000	23.000
85.000	20.000
86.000	18.000
87.000	30.000
88.000	20.000
89.000	19.000
90.000	18.000
91.000	23.000
92.000	28.000
93.000	20.000
94.000	20.000
95.000	20.000
96.000	23.000
97.000	28.000
98.000	18.000
99.000	20.000
100.000	21.000
101.000	15.000
102.000	13.000
103.000	17.000
104.000	23.000
105.000	22.000
106.000	16.000
107.000	18.000
108.000	22.000
109.000	27.000
110.000	16.000
111.000	15.000
112.000	21.000
113.000	18.000
114.000	19.000
115.000	24.000
116.000	23.000
117.000	17.000
118.000	20.000
119.000	19.000
120.000	12.000
121.000	20.000
122.000	24.000
123.000	16.000
124.000	16.000
125.000	15.000
126.000	15.000
127.000	19.000
128.000	16.000
129.000	19.000
130.000	15.000
131.000	17.000
132.000	19.000
133.000	16.000
134.000	14.000
135.000	18.000
136.000	17.000
137.000	14.000
138.000	15.000
139.000	14.000
140.000	23.000
141.000	14.000
142.000	17.000
143.000	24.000
144.000	34.000
145.000	34.000
146.000	26.000
147.000	30.000
148.000	18.000
149.000	21.000
150.000	16.000
151.000	17.000
152.000	16.000
153.000	14.000
154.000	15.000
155.000	18.000
156.000	15.000
157.000	15.000
158.000	14.000
159.000	16.000
160.000	22.000
161.000	9.000
162.000	12.000
163.000	13.000
164.000	16.000
165.000	30.000
166.000	35.000
167.000	24.000
168.000	33.000
169.000	40.000
170.000	54.000
171.000	42.000
172.000	38.000
173.000	46.000
174.000	46.000
175.000	24.000
176.000	32.000
177.000	32.000
178.000	22.000
179.000	30.000
180.000	27.000
181.000	41.000
182.000	42.000
183.000	60.000
184.000	63.000
185.000	112.000
186.000	158.000
187.000	162.000
188.000	205.000
189.000	276.000
190.000	282.000
191.000	270.000
192.000	262.000
193.000	234.000
194.000	222.000
195.000	182.000
196.000	128.000
197.000	95.000
198.000	65.000
199.000	48.000
200.000	31.000
201.000	20.000
202.000	19.000
203.000	16.000
204.000	22.000
205.000	20.000
206.000	10.000
207.000	12.000
208.000	19.000
209.000	19.000
210.000	19.000
211.000	19.000
212.000	14.000
213.000	16.000
214.000	25.000
215.000	25.000
216.000	30.000
217.000	31.000
218.000	41.000
219.000	41.000
220.000	53.000
221.000	54.000
222.000	47.000
223.000	47.000
224.000	38.000
225.000	33.000
226.000	47.000
227.000	41.000
228.000	35.000
229.000	19.000
230.000	22.000
231.000	31.000
232.000	15.000
233.000	22.000
234.000	13.000
235.000	8.000
236.000	15.000
237.000	14.000
238.000	10.000
239.000	10.000
240.000	22.000
241.000	15.000
242.000	14.000
243.000	14.000
244.000	16.000
245.000	11.000
246.000	25.000
247.000	23.000
248.000	27.000
249.000	48.000
250.000	40.000
251.000	69.000
252.000	88.000
253.000	105.000
254.000	107.000
255.000	134.000
256.000	162.000
257.000	158.000
258.000	168.000
259.000	167.000
260.000	145.000
261.000	115.000
262.000	76.000
263.000	66.000
264.000	49.000
265.000	35.000
266.000	30.000
267.000	27.000
268.000	30.000
269.000	28.000
270.000	18.000
271.000	27.000
272.000	27.000
273.000	30.000
274.000	32.000
275.000	32.000
276.000	38.000
277.000	23.000
278.000	21.000
279.000	32.000
280.000	31.000
281.000	28.000
282.000	43.000
283.000	34.000
284.000	51.000
285.000	49.000
286.000	61.000
287.000	65.000
288.000	98.000
289.000	80.000
290.000	93.000
291.000	87.000
292.000	87.000
293.000	76.000
294.000	51.000
295.000	53.000
296.000	52.000
297.000	28.000
298.000	31.000
299.000	33.000
300.000	29.000
301.000	22.000
302.000	27.000
303.000	23.000
304.000	29.000
305.000	27.000
306.000	33.000
307.000	26.000
308.000	29.000
309.000	32.000
310.000	30.000
311.000	43.000
312.000	39.000
313.000	28.000
314.000	43.000
315.000	59.000
316.000	50.000
317.000	95.000
318.000	119.000
319.000	112.000
320.000	152.000
321.000	161.000
322.000	205.000
323.000	205.000
324.000	211.000
325.000	203.000
326.000	198.000
327.000	172.000
328.000	171.000
329.000	142.000
330.000	111.000
331.000	97.000
332.000	72.000
333.000	53.000
334.000	40.000
335.000	42.000
336.000	35.000
337.000	31.000
338.000	38.000
339.000	35.000
340.000	43.000
341.000	62.000
342.000	70.000
343.000	95.000
344.000	116.000
345.000	151.000
346.000	219.000
347.000	357.000
348.000	542.000
349.000	866.000
350.000	1325.000
351.000	2057.000
352.000	3247.000
353.000	4614.000
354.000	6697.000
355.000	9210.000
356.000	11987.000
357.000	15139.000
358.000	18044.000
359.000	20587.000
360.000	22343.000
361.000	23558.000
362.000	23071.000
363.000	22252.000
364.000	19924.000
365.000	16985.000
366.000	14001.000
367.000	11018.000
368.000	8440.000
369.000	6123.000
370.000	4168.000
371.000	2747.000
372.000	1697.000
373.000	1088.000
374.000	665.000
375.000	431.000
376.000	287.000
377.000	182.000
378.000	171.000
379.000	199.000
380.000	253.000
381.000	305.000
382.000	423.000
383.000	613.000
384.000	791.000
385.000	1064.000
386.000	1364.000
387.000	1698.000
388.000	2120.000
389.000	2596.000
390.000	3058.000
391.000	3357.000
392.000	3438.000
393.000	3434.000
394.000	3346.000
395.000	3228.000
396.000	2805.000
397.000	2296.000
398.000	1947.000
399.000	1534.000
400.000	1229.000
401.000	807.000
402.000	534.000
403.000	440.000
404.000	239.000
405.000	148.000
406.000	80.000
407.000	56.000
408.000	27.000
409.000	15.000
410.000	15.000
411.000	11.000
412.000	9.000
413.000	11.000
414.000	10.000
415.000	7.000
416.000	7.000
417.000	5.000
418.000	6.000
419.000	9.000
420.000	10.000
421.000	14.000
422.000	13.000
423.000	7.000
424.000	11.000
425.000	5.000
426.000	13.000
427.000	10.000
428.000	21.000
429.000	20.000
430.000	21.000
431.000	37.000
432.000	45.000
433.000	51.000
434.000	72.000
435.000	90.000
436.000	126.000
437.000	149.000
438.000	167.000
439.000	183.000
440.000	195.000
441.000	191.000
442.000	203.000
443.000	160.000
444.000	172.000
445.000	165.000
446.000	126.000
447.000	103.000
448.000	100.000
449.000	77.000
450.000	64.000
451.000	59.000
452.000	40.000
453.000	35.000
454.000	41.000
455.000	41.000
456.000	32.000
457.000	27.000
458.000	20.000
459.000	25.000
460.000	22.000
461.000	19.000
462.000	15.000
463.000	15.000
464.000	15.000
465.000	17.000
466.000	19.000
467.000	16.000
468.000	15.000
469.000	12.000
470.000	14.000
471.000	27.000
472.000	30.000
473.000	22.000
474.000	22.000
475.000	19.000
476.000	34.000
477.000	30.000
478.000	42.000
479.000	44.000
480.000	44.000
481.000	34.000
482.000	42.000
483.000	54.000
484.000	39.000
485.000	38.000
486.000	38.000
487.000	38.000
488.000	30.000
489.000	29.000
490.000	27.000
491.000	28.000
492.000	18.000
493.000	12.000
494.000	20.000
495.000	17.000
496.000	12.000
497.000	17.000
498.000	8.000
499.000	9.000
500.000	17.000
501.000	17.000
502.000	13.000
503.000	10.000
504.000	13.000
505.000	12.000
506.000	19.000
507.000	15.000
508.000	15.000
509.000	12.000
510.000	24.000
511.000	12.000
512.000	22.000
513.000	24.000
514.000	22.000
515.000	15.000
516.000	28.000
517.000	22.000
518.000	21.000
519.000	21.000
520.000	24.000
521.000	31.000
522.000	28.000
523.000	34.000
524.000	36.000
525.000	35.000
526.000	57.000
527.000	34.000
528.000	40.000
529.000	34.000
530.000	47.000
531.000	43.000
532.000	49.000
533.000	40.000
534.000	41.000
535.000	30.000
536.000	31.000
537.000	39.000
538.000	24.000
539.000	18.000
540.000	20.000
541.000	28.000
542.000	27.000
543.000	15.000
544.000	21.000
545.000	25.000
546.000	22.000
547.000	19.000
548.000	18.000
549.000	20.000
550.000	19.000
551.000	16.000
552.000	21.000
553.000	26.000
554.000	23.000
555.000	30.000
556.000	21.000
557.000	35.000
558.000	19.000
559.000	22.000
560.000	26.000
561.000	32.000
562.000	30.000
563.000	37.000
564.000	46.000
565.000	43.000
566.000	48.000
567.000	45.000
568.000	51.000
569.000	72.000
570.000	86.000
571.000	88.000
572.000	104.000
573.000	114.000
574.000	109.000
575.000	125.000
576.000	125.000
577.000	122.000
578.000	138.000
579.000	137.000
580.000	100.000
581.000	83.000
582.000	110.000
583.000	80.000
584.000	62.000
585.000	56.000
586.000	59.000
587.000	51.000
588.000	33.000
589.000	27.000
590.000	30.000
591.000	22.000
592.000	24.000
593.000	19.000
594.000	34.000
595.000	24.000
596.000	30.000
597.000	28.000
598.000	30.000
599.000	30.000
600.000	31.000
601.000	33.000
602.000	28.000
603.000	43.000
604.000	45.000
605.000	52.000
606.000	51.000
607.000	63.000
608.000	90.000
609.000	117.000
610.000	172.000
611.000	252.000
612.000	349.000
613.000	472.000
614.000	675.000
615.000	880.000
616.000	1190.000
617.000	1516.000
618.000	1801.000
619.000	2247.000
620.000	2672.000
621.000	3186.000
622.000	3457.000
623.000	3927.000
624.000	4087.000
625.000	4164.000
626.000	4060.000
627.000	3934.000
628.000	3717.000
629.000	3370.000
630.000	2974.000
631.000	2538.000
632.000	2138.000
633.000	1648.000
634.000	1372.000
635.000	1054.000
636.000	806.000
637.000	564.000
638.000	380.000
639.000	321.000
640.000	207.000
641.000	160.000
642.000	115.000
643.000	95.000
644.000	89.000
645.000	57.000
646.000	55.000
647.000	77.000
648.000	63.000
649.000	57.000
650.000	52.000
651.000	53.000
652.000	52.000
653.000	58.000
654.000	58.000
655.000	62.000
656.000	55.000
657.000	39.000
658.000	54.000
659.000	49.000
660.000	56.000
661.000	55.000
662.000	57.000
663.000	56.000
664.000	59.000
665.000	73.000
666.000	59.000
667.000	72.000
668.000	82.000
669.000	63.000
670.000	76.000
671.000	91.000
672.000	82.000
673.000	92.000
674.000	99.000
675.000	119.000
676.000	154.000
677.000	153.000
678.000	205.000
679.000	200.000
680.000	279.000
681.000	345.000
682.000	397.000
683.000	459.000
684.000	494.000
685.000	600.000
686.000	625.000
687.000	648.000
688.000	732.000
689.000	765.000
690.000	707.000
691.000	683.000
692.000	675.000
693.000	537.000
694.000	532.000
695.000	441.000
696.000	390.000
697.000	317.000
698.000	257.000
699.000	195.000
700.000	197.000
701.000	151.000
702.000	140.000
703.000	111.000
704.000	65.000
705.000	63.000
706.000	69.000
707.000	65.000
708.000	55.000
709.000	69.000
710.000	52.000
711.000	59.000
712.000	59.000
713.000	67.000
714.000	58.000
715.000	68.000
716.000	67.000
717.000	75.000
718.000	77.000
719.000	106.000
720.000	77.000
721.000	99.000
722.000	90.000
723.000	95.000
724.000	105.000
725.000	99.000
726.000	81.000
727.000	89.000
728.000	104.000
729.000	91.000
730.000	95.000
731.000	96.000
732.000	80.000
733.000	86.000
734.000	74.000
735.000	64.000
736.000	66.000
737.000	73.000
738.000	83.000
739.000	62.000
740.000	65.000
741.000	56.000
742.000	69.000
743.000	70.000
744.000	77.000
745.000	67.000
746.000	58.000
747.000	57.000
748.000	82.000
749.000	70.000
750.000	62.000
751.000	75.000
752.000	60.000
753.000	63.000
754.000	75.000
755.000	78.000
756.000	72.000
757.000	71.000
758.000	72.000
759.000	66.000
760.000	78.000
761.000	76.000
762.000	72.000
763.000	78.000
764.000	69.000
765.000	66.000
766.000	68.000
767.000	83.000
768.000	75.000
769.000	76.000
770.000	78.000
771.000	87.000
772.000	90.000
773.000	89.000
774.000	96.000
775.000	106.000
776.000	78.000
777.000	90.000
778.000	86.000
779.000	95.000
780.000	88.000
781.000	101.000
782.000	121.000
783.000	124.000
784.000	115.000
785.000	121.000
786.000	123.000
787.000	124.000
788.000	139.000
789.000	134.000
790.000	120.000
791.000	121.000
792.000	142.000
793.000	138.000
794.000	150.000
795.000	138.000
796.000	135.000
797.000	146.000
798.000	130.000
799.000	149.000
800.000	139.000
801.000	126.000
802.000	127.000
803.000	144.000
804.000	152.000
805.000	128.000
806.000	161.000
807.000	165.000
808.000	171.000
809.000	174.000
810.000	185.000
811.000	203.000
812.000	213.000
813.000	232.000
814.000	278.000
815.000	255.000
816.000	273.000
817.000	308.000
818.000	315.000
819.000	325.000
820.000	294.000
821.000	305.000
822.000	296.000
823.000	297.000
824.000	275.000
825.000	235.000
826.000	229.000
827.000	199.000
828.000	207.000
829.000	170.000
830.000	165.000
831.000	164.000
832.000	122.000
833.000	133.000
834.000	128.000
835.000	128.000
836.000	116.000
837.000	123.000
838.000	118.000
839.000	121.000
840.000	117.000
841.000	125.000
842.000	125.000
843.000	131.000
844.000	109.000
845.000	117.000
846.000	135.000
847.000	126.000
848.000	124.000
849.000	113.000
850.000	110.000
851.000	121.000
852.000	108.000
853.000	134.000
854.000	113.000
855.000	116.000
856.000	116.000
857.000	127.000
858.000	103.000
859.000	109.000
860.000	94.000
861.000	117.000
862.000	100.000
863.000	125.000
864.000	118.000
865.000	115.000
866.000	127.000
867.000	127.000
868.000	97.000
869.000	123.000
870.000	97.000
871.000	102.000
872.000	110.000
873.000	125.000
874.000	102.000
875.000	135.000
876.000	134.000
877.000	114.000
878.000	120.000
879.000	128.000
880.000	116.000
881.000	107.000
882.000	106.000
883.000	112.000
884.000	118.000
885.000	133.000
886.000	115.000
887.000	101.000
888.000	112.000
889.000	119.000
890.000	112.000
891.000	124.000
892.000	109.000
893.000	125.000
894.000	135.000
895.000	135.000
896.000	129.000
897.000	113.000
898.000	128.000
899.000	132.000
900.000	125.000
901.000	149.000
902.000	129.000
903.000	137.000
904.000	138.000
905.000	134.000
906.000	179.000
907.000	146.000
908.000	146.000
909.000	157.000
910.000	153.000
911.000	169.000
912.000	138.000
913.000	142.000
914.000	147.000
915.000	146.000
916.000	137.000
917.000	179.000
918.000	170.000
919.000	172.000
920.000	153.000
921.000	183.000
922.000	183.000
923.000	181.000
924.000	186.000
925.000	183.000
926.000	187.000
927.000	188.000
928.000	195.000
929.000	163.000
930.000	196.000
931.000	195.000
932.000	172.000
933.000	208.000
934.000	187.000
935.000	229.000
936.000	214.000
937.000	255.000
938.000	217.000
939.000	243.000
940.000	218.000
941.000	261.000
942.000	246.000
943.000	256.000
944.000	224.000
945.000	251.000
946.000	230.000
947.000	259.000
948.000	250.000
949.000	261.000
950.000	204.000
951.000	229.000
952.000	213.000
953.000	208.000
954.000	166.000
955.000	192.000
956.000	178.000
957.000	202.000
958.000	158.000
959.000	166.000
960.000	172.000
961.000	178.000
962.000	168.000
963.000	184.000
964.000	149.000
965.000	174.000
966.000	168.000
967.000	151.000
968.000	175.000
969.000	170.000
970.000	170.000
971.000	183.000
972.000	190.000
973.000	174.000
974.000	163.000
975.000	180.000
976.000	183.000
977.000	162.000
978.000	170.000
979.000	181.000
980.000	167.000
981.000	150.000
982.000	161.000
983.000	140.000
984.000	159.000
985.000	149.000
986.000	171.000
987.000	138.000
988.000	150.000
989.000	124.000
990.000	123.000
991.000	126.000
992.000	165.000
993.000	129.000
994.000	141.000
995.000	155.000
996.000	120.000
997.000	126.000
998.000	144.000
999.000	126.000
1000.000	130.000
1001.000	124.000
1002.000	136.000
1003.000	148.000
1004.000	134.000
1005.000	132.000
1006.000	140.000
1007.000	139.000
1008.000	148.000
1009.000	138.000
1010.000	122.000
1011.000	123.000
1012.000	141.000
1013.000	154.000
1014.000	140.000
1015.000	136.000
1016.000	146.000
1017.000	148.000
1018.000	148.000
1019.000	132.000
1020.000	147.000
1021.000	129.000
1022.000	145.000
1023.000	119.000
1024.000	151.000
1025.000	145.000
1026.000	139.000
1027.000	144.000
1028.000	134.000
1029.000	127.000
1030.000	138.000
1031.000	134.000
1032.000	155.000
1033.000	127.000
1034.000	139.000
1035.000	119.000
1036.000	142.000
1037.000	131.000
1038.000	138.000
1039.000	146.000
1040.000	146.000
1041.000	139.000
1042.000	131.000
1043.000	148.000
1044.000	137.000
1045.000	155.000
1046.000	149.000
1047.000	136.000
1048.000	141.000
1049.000	148.000
1050.000	159.000
1051.000	160.000
1052.000	154.000
1053.000	165.000
1054.000	153.000
1055.000	139.000
1056.000	141.000
1057.000	124.000
1058.000	166.000
1059.000	149.000
1060.000	173.000
1061.000	162.000
1062.000	144.000
1063.000	160.000
1064.000	147.000
1065.000	159.000
1066.000	154.000
1067.000	126.000
1068.000	158.000
1069.000	159.000
1070.000	155.000
1071.000	146.000
1072.000	165.000
1073.000	158.000
1074.000	161.000
1075.000	137.000
1076.000	172.000
1077.000	152.000
1078.000	155.000
1079.000	169.000
1080.000	138.000
1081.000	145.000
1082.000	174.000
1083.000	147.000
1084.000	168.000
1085.000	157.000
1086.000	151.000
1087.000	133.000
1088.000	150.000
1089.000	174.000
1090.000	171.000
1091.000	152.000
1092.000	184.000
1093.000	166.000
1094.000	157.000
1095.000	186.000
1096.000	170.000
1097.000	183.000
1098.000	181.000
1099.000	166.000
1100.000	157.000
1101.000	172.000
1102.000	170.000
1103.000	158.000
1104.000	182.000
1105.000	157.000
1106.000	154.000
1107.000	180.000
1108.000	184.000
1109.000	162.000
1110.000	150.000
1111.000	169.000
1112.000	163.000
1113.000	181.000
1114.000	148.000
1115.000	138.000
1116.000	160.000
1117.000	168.000
1118.000	157.000
1119.000	161.000
1120.000	163.000
1121.000	164.000
1122.000	149.000
1123.000	175.000
1124.000	163.000
1125.000	135.000
1126.000	143.000
1127.000	154.000
1128.000	168.000
1129.000	162.000
1130.000	146.000
1131.000	150.000
1132.000	143.000
1133.000	167.000
1134.000	140.000
1135.000	147.000
1136.000	148.000
1137.000	153.000
1138.000	164.000
1139.000	186.000
1140.000	168.000
1141.000	170.000
1142.000	145.000
1143.000	169.000
1144.000	181.000
1145.000	137.000
1146.000	156.000
1147.000	197.000
1148.000	147.000
1149.000	184.000
1150.000	174.000
1151.000	166.000
1152.000	181.000
1153.000	169.000
1154.000	184.000
1155.000	170.000
1156.000	194.000
1157.000	162.000
