Date:	23-Sep-20		Time:	10:07 PM		Version no:	0.00		Project name:	55		Sample name:	222		Section name:	section		Position	1146.745018	mm	E0	0.000000	keV	E1	1.000000	keV/channel	sample surface	7.238317	cm	Tube anode:	Mo		Tube voltage:	30	kV	Tube current:	30	mA	gain	15		std. database			resultfile	result		matrix element	11		sample thickness	1.000000		air passage	0.560000	cm	comments	in position		peaking_time	0.300000	m-sec	trigger_threshold	40.000000	V	mca_bin_width	2.000000	no:	number_mca_channels	2048.000000	no:	gap_time	2048.000000	m-sec	trigger_peaking_time	2048.000000	m-sec	GAINDAC	400		HIGHGAIN	400		TAURC	400		RCTAU	400		RCTAUFRAC	400		livetime	13.490898	seconds	runtime	15.000163	seconds	input_count_rate	49930.405114	cps	output_count_rate	44906.580179	cps	triggers	736976	seconds	events_in_run	658746	seconds	channel	content		1.000	0.000
2.000	0.000
3.000	0.000
4.000	0.000
5.000	0.000
6.000	0.000
7.000	0.000
8.000	0.000
9.000	0.000
10.000	0.000
11.000	0.000
12.000	0.000
13.000	0.000
14.000	0.000
15.000	0.000
16.000	0.000
17.000	0.000
18.000	0.000
19.000	0.000
20.000	0.000
21.000	0.000
22.000	0.000
23.000	0.000
24.000	0.000
25.000	0.000
26.000	0.000
27.000	0.000
28.000	0.000
29.000	0.000
30.000	0.000
31.000	0.000
32.000	1.000
33.000	0.000
34.000	0.000
35.000	0.000
36.000	0.000
37.000	0.000
38.000	1.000
39.000	0.000
40.000	0.000
41.000	1.000
42.000	1.000
43.000	0.000
44.000	0.000
45.000	1.000
46.000	1.000
47.000	0.000
48.000	0.000
49.000	2.000
50.000	2.000
51.000	1.000
52.000	4.000
53.000	3.000
54.000	5.000
55.000	6.000
56.000	8.000
57.000	6.000
58.000	13.000
59.000	17.000
60.000	28.000
61.000	27.000
62.000	43.000
63.000	37.000
64.000	44.000
65.000	28.000
66.000	22.000
67.000	15.000
68.000	25.000
69.000	34.000
70.000	29.000
71.000	24.000
72.000	31.000
73.000	27.000
74.000	32.000
75.000	33.000
76.000	28.000
77.000	32.000
78.000	21.000
79.000	28.000
80.000	20.000
81.000	20.000
82.000	22.000
83.000	27.000
84.000	23.000
85.000	31.000
86.000	29.000
87.000	15.000
88.000	28.000
89.000	26.000
90.000	28.000
91.000	28.000
92.000	20.000
93.000	26.000
94.000	24.000
95.000	30.000
96.000	20.000
97.000	23.000
98.000	24.000
99.000	19.000
100.000	19.000
101.000	18.000
102.000	22.000
103.000	18.000
104.000	21.000
105.000	14.000
106.000	16.000
107.000	13.000
108.000	20.000
109.000	19.000
110.000	24.000
111.000	9.000
112.000	16.000
113.000	17.000
114.000	24.000
115.000	20.000
116.000	18.000
117.000	24.000
118.000	17.000
119.000	24.000
120.000	17.000
121.000	11.000
122.000	18.000
123.000	18.000
124.000	19.000
125.000	19.000
126.000	21.000
127.000	19.000
128.000	24.000
129.000	16.000
130.000	11.000
131.000	10.000
132.000	16.000
133.000	17.000
134.000	20.000
135.000	12.000
136.000	17.000
137.000	21.000
138.000	10.000
139.000	20.000
140.000	14.000
141.000	16.000
142.000	23.000
143.000	19.000
144.000	20.000
145.000	28.000
146.000	30.000
147.000	22.000
148.000	22.000
149.000	26.000
150.000	15.000
151.000	18.000
152.000	18.000
153.000	15.000
154.000	20.000
155.000	16.000
156.000	18.000
157.000	13.000
158.000	12.000
159.000	16.000
160.000	12.000
161.000	12.000
162.000	18.000
163.000	19.000
164.000	29.000
165.000	32.000
166.000	29.000
167.000	30.000
168.000	42.000
169.000	58.000
170.000	63.000
171.000	60.000
172.000	62.000
173.000	45.000
174.000	48.000
175.000	39.000
176.000	39.000
177.000	37.000
178.000	34.000
179.000	22.000
180.000	39.000
181.000	44.000
182.000	46.000
183.000	37.000
184.000	90.000
185.000	106.000
186.000	129.000
187.000	179.000
188.000	217.000
189.000	238.000
190.000	271.000
191.000	254.000
192.000	242.000
193.000	259.000
194.000	191.000
195.000	157.000
196.000	135.000
197.000	90.000
198.000	58.000
199.000	44.000
200.000	26.000
201.000	35.000
202.000	16.000
203.000	15.000
204.000	16.000
205.000	19.000
206.000	17.000
207.000	15.000
208.000	19.000
209.000	21.000
210.000	23.000
211.000	24.000
212.000	18.000
213.000	18.000
214.000	23.000
215.000	29.000
216.000	18.000
217.000	25.000
218.000	38.000
219.000	30.000
220.000	55.000
221.000	48.000
222.000	52.000
223.000	48.000
224.000	52.000
225.000	48.000
226.000	40.000
227.000	38.000
228.000	33.000
229.000	33.000
230.000	20.000
231.000	15.000
232.000	22.000
233.000	20.000
234.000	12.000
235.000	12.000
236.000	13.000
237.000	14.000
238.000	16.000
239.000	14.000
240.000	13.000
241.000	20.000
242.000	9.000
243.000	15.000
244.000	13.000
245.000	14.000
246.000	21.000
247.000	28.000
248.000	46.000
249.000	40.000
250.000	42.000
251.000	71.000
252.000	91.000
253.000	99.000
254.000	126.000
255.000	136.000
256.000	163.000
257.000	162.000
258.000	159.000
259.000	150.000
260.000	131.000
261.000	113.000
262.000	91.000
263.000	51.000
264.000	52.000
265.000	45.000
266.000	14.000
267.000	24.000
268.000	27.000
269.000	15.000
270.000	24.000
271.000	39.000
272.000	22.000
273.000	18.000
274.000	30.000
275.000	26.000
276.000	25.000
277.000	33.000
278.000	29.000
279.000	33.000
280.000	29.000
281.000	34.000
282.000	30.000
283.000	35.000
284.000	39.000
285.000	48.000
286.000	45.000
287.000	76.000
288.000	81.000
289.000	89.000
290.000	84.000
291.000	83.000
292.000	68.000
293.000	67.000
294.000	66.000
295.000	52.000
296.000	44.000
297.000	34.000
298.000	29.000
299.000	21.000
300.000	26.000
301.000	27.000
302.000	23.000
303.000	25.000
304.000	21.000
305.000	30.000
306.000	26.000
307.000	22.000
308.000	31.000
309.000	30.000
310.000	36.000
311.000	46.000
312.000	42.000
313.000	37.000
314.000	60.000
315.000	61.000
316.000	70.000
317.000	100.000
318.000	115.000
319.000	155.000
320.000	186.000
321.000	216.000
322.000	269.000
323.000	263.000
324.000	252.000
325.000	292.000
326.000	313.000
327.000	257.000
328.000	224.000
329.000	166.000
330.000	152.000
331.000	117.000
332.000	92.000
333.000	67.000
334.000	52.000
335.000	49.000
336.000	45.000
337.000	35.000
338.000	40.000
339.000	42.000
340.000	57.000
341.000	65.000
342.000	71.000
343.000	95.000
344.000	97.000
345.000	167.000
346.000	231.000
347.000	338.000
348.000	510.000
349.000	843.000
350.000	1342.000
351.000	2045.000
352.000	3053.000
353.000	4506.000
354.000	6615.000
355.000	8971.000
356.000	11689.000
357.000	14218.000
358.000	17203.000
359.000	19755.000
360.000	21682.000
361.000	22554.000
362.000	22166.000
363.000	21216.000
364.000	19118.000
365.000	16345.000
366.000	13528.000
367.000	10872.000
368.000	8014.000
369.000	5620.000
370.000	3941.000
371.000	2575.000
372.000	1630.000
373.000	1020.000
374.000	598.000
375.000	365.000
376.000	241.000
377.000	212.000
378.000	166.000
379.000	189.000
380.000	267.000
381.000	319.000
382.000	445.000
383.000	525.000
384.000	769.000
385.000	1042.000
386.000	1289.000
387.000	1632.000
388.000	2000.000
389.000	2436.000
390.000	2946.000
391.000	3165.000
392.000	3382.000
393.000	3304.000
394.000	3155.000
395.000	2943.000
396.000	2696.000
397.000	2252.000
398.000	1911.000
399.000	1396.000
400.000	1142.000
401.000	750.000
402.000	530.000
403.000	354.000
404.000	242.000
405.000	156.000
406.000	91.000
407.000	67.000
408.000	33.000
409.000	22.000
410.000	20.000
411.000	11.000
412.000	12.000
413.000	5.000
414.000	14.000
415.000	8.000
416.000	11.000
417.000	7.000
418.000	12.000
419.000	9.000
420.000	4.000
421.000	13.000
422.000	6.000
423.000	10.000
424.000	10.000
425.000	13.000
426.000	9.000
427.000	16.000
428.000	8.000
429.000	21.000
430.000	39.000
431.000	35.000
432.000	58.000
433.000	57.000
434.000	88.000
435.000	91.000
436.000	134.000
437.000	147.000
438.000	160.000
439.000	190.000
440.000	187.000
441.000	199.000
442.000	182.000
443.000	184.000
444.000	175.000
445.000	160.000
446.000	120.000
447.000	108.000
448.000	105.000
449.000	68.000
450.000	63.000
451.000	43.000
452.000	45.000
453.000	42.000
454.000	33.000
455.000	30.000
456.000	27.000
457.000	28.000
458.000	33.000
459.000	19.000
460.000	20.000
461.000	16.000
462.000	16.000
463.000	20.000
464.000	20.000
465.000	14.000
466.000	14.000
467.000	11.000
468.000	15.000
469.000	22.000
470.000	15.000
471.000	16.000
472.000	24.000
473.000	33.000
474.000	25.000
475.000	24.000
476.000	29.000
477.000	36.000
478.000	40.000
479.000	38.000
480.000	47.000
481.000	50.000
482.000	52.000
483.000	49.000
484.000	31.000
485.000	48.000
486.000	52.000
487.000	44.000
488.000	32.000
489.000	31.000
490.000	27.000
491.000	20.000
492.000	15.000
493.000	24.000
494.000	27.000
495.000	15.000
496.000	16.000
497.000	21.000
498.000	15.000
499.000	13.000
500.000	19.000
501.000	19.000
502.000	12.000
503.000	19.000
504.000	18.000
505.000	16.000
506.000	15.000
507.000	13.000
508.000	17.000
509.000	26.000
510.000	22.000
511.000	17.000
512.000	28.000
513.000	14.000
514.000	22.000
515.000	21.000
516.000	35.000
517.000	29.000
518.000	32.000
519.000	37.000
520.000	36.000
521.000	38.000
522.000	38.000
523.000	31.000
524.000	43.000
525.000	37.000
526.000	40.000
527.000	44.000
528.000	50.000
529.000	49.000
530.000	42.000
531.000	45.000
532.000	54.000
533.000	48.000
534.000	24.000
535.000	43.000
536.000	39.000
537.000	31.000
538.000	18.000
539.000	20.000
540.000	17.000
541.000	23.000
542.000	24.000
543.000	20.000
544.000	28.000
545.000	18.000
546.000	17.000
547.000	21.000
548.000	33.000
549.000	18.000
550.000	18.000
551.000	19.000
552.000	28.000
553.000	19.000
554.000	15.000
555.000	26.000
556.000	21.000
557.000	28.000
558.000	27.000
559.000	29.000
560.000	34.000
561.000	33.000
562.000	32.000
563.000	25.000
564.000	47.000
565.000	26.000
566.000	48.000
567.000	50.000
568.000	53.000
569.000	76.000
570.000	73.000
571.000	73.000
572.000	81.000
573.000	90.000
574.000	94.000
575.000	99.000
576.000	119.000
577.000	101.000
578.000	113.000
579.000	125.000
580.000	77.000
581.000	92.000
582.000	85.000
583.000	76.000
584.000	71.000
585.000	55.000
586.000	48.000
587.000	39.000
588.000	39.000
589.000	33.000
590.000	38.000
591.000	24.000
592.000	32.000
593.000	43.000
594.000	22.000
595.000	24.000
596.000	41.000
597.000	39.000
598.000	30.000
599.000	33.000
600.000	23.000
601.000	26.000
602.000	48.000
603.000	38.000
604.000	41.000
605.000	54.000
606.000	61.000
607.000	89.000
608.000	98.000
609.000	115.000
610.000	183.000
611.000	263.000
612.000	357.000
613.000	548.000
614.000	685.000
615.000	910.000
616.000	1267.000
617.000	1563.000
618.000	1941.000
619.000	2316.000
620.000	2896.000
621.000	3254.000
622.000	3610.000
623.000	3869.000
624.000	4195.000
625.000	4358.000
626.000	4355.000
627.000	4129.000
628.000	3936.000
629.000	3565.000
630.000	3101.000
631.000	2799.000
632.000	2253.000
633.000	1847.000
634.000	1396.000
635.000	1116.000
636.000	817.000
637.000	641.000
638.000	417.000
639.000	302.000
640.000	193.000
641.000	168.000
642.000	147.000
643.000	74.000
644.000	78.000
645.000	72.000
646.000	66.000
647.000	55.000
648.000	63.000
649.000	67.000
650.000	57.000
651.000	60.000
652.000	47.000
653.000	55.000
654.000	64.000
655.000	70.000
656.000	57.000
657.000	72.000
658.000	47.000
659.000	67.000
660.000	70.000
661.000	62.000
662.000	62.000
663.000	65.000
664.000	52.000
665.000	67.000
666.000	64.000
667.000	68.000
668.000	70.000
669.000	71.000
670.000	68.000
671.000	83.000
672.000	94.000
673.000	105.000
674.000	113.000
675.000	129.000
676.000	152.000
677.000	179.000
678.000	218.000
679.000	269.000
680.000	305.000
681.000	388.000
682.000	408.000
683.000	494.000
684.000	505.000
685.000	599.000
686.000	678.000
687.000	734.000
688.000	730.000
689.000	753.000
690.000	729.000
691.000	690.000
692.000	705.000
693.000	622.000
694.000	525.000
695.000	481.000
696.000	434.000
697.000	381.000
698.000	305.000
699.000	249.000
700.000	203.000
701.000	135.000
702.000	120.000
703.000	104.000
704.000	89.000
705.000	61.000
706.000	68.000
707.000	59.000
708.000	67.000
709.000	56.000
710.000	71.000
711.000	63.000
712.000	42.000
713.000	57.000
714.000	50.000
715.000	67.000
716.000	74.000
717.000	80.000
718.000	73.000
719.000	93.000
720.000	79.000
721.000	81.000
722.000	100.000
723.000	83.000
724.000	88.000
725.000	95.000
726.000	84.000
727.000	89.000
728.000	93.000
729.000	82.000
730.000	105.000
731.000	105.000
732.000	92.000
733.000	81.000
734.000	89.000
735.000	84.000
736.000	89.000
737.000	90.000
738.000	80.000
739.000	78.000
740.000	72.000
741.000	72.000
742.000	90.000
743.000	66.000
744.000	72.000
745.000	64.000
746.000	61.000
747.000	64.000
748.000	69.000
749.000	69.000
750.000	82.000
751.000	68.000
752.000	70.000
753.000	64.000
754.000	60.000
755.000	56.000
756.000	66.000
757.000	84.000
758.000	80.000
759.000	73.000
760.000	67.000
761.000	74.000
762.000	74.000
763.000	61.000
764.000	85.000
765.000	70.000
766.000	67.000
767.000	70.000
768.000	71.000
769.000	72.000
770.000	101.000
771.000	81.000
772.000	76.000
773.000	69.000
774.000	90.000
775.000	70.000
776.000	91.000
777.000	94.000
778.000	93.000
779.000	105.000
780.000	112.000
781.000	97.000
782.000	110.000
783.000	112.000
784.000	115.000
785.000	112.000
786.000	134.000
787.000	136.000
788.000	120.000
789.000	110.000
790.000	127.000
791.000	135.000
792.000	134.000
793.000	139.000
794.000	146.000
795.000	149.000
796.000	145.000
797.000	126.000
798.000	121.000
799.000	130.000
800.000	149.000
801.000	135.000
802.000	164.000
803.000	149.000
804.000	140.000
805.000	156.000
806.000	160.000
807.000	155.000
808.000	191.000
809.000	188.000
810.000	202.000
811.000	193.000
812.000	228.000
813.000	271.000
814.000	263.000
815.000	277.000
816.000	257.000
817.000	282.000
818.000	325.000
819.000	330.000
820.000	297.000
821.000	284.000
822.000	285.000
823.000	301.000
824.000	269.000
825.000	238.000
826.000	247.000
827.000	200.000
828.000	215.000
829.000	202.000
830.000	172.000
831.000	132.000
832.000	154.000
833.000	128.000
834.000	140.000
835.000	152.000
836.000	136.000
837.000	114.000
838.000	132.000
839.000	128.000
840.000	132.000
841.000	159.000
842.000	130.000
843.000	100.000
844.000	124.000
845.000	154.000
846.000	146.000
847.000	105.000
848.000	132.000
849.000	132.000
850.000	121.000
851.000	133.000
852.000	113.000
853.000	137.000
854.000	109.000
855.000	107.000
856.000	126.000
857.000	98.000
858.000	133.000
859.000	105.000
860.000	123.000
861.000	103.000
862.000	108.000
863.000	127.000
864.000	111.000
865.000	118.000
866.000	135.000
867.000	121.000
868.000	119.000
869.000	115.000
870.000	101.000
871.000	107.000
872.000	128.000
873.000	111.000
874.000	123.000
875.000	111.000
876.000	111.000
877.000	114.000
878.000	103.000
879.000	121.000
880.000	118.000
881.000	108.000
882.000	107.000
883.000	110.000
884.000	131.000
885.000	118.000
886.000	121.000
887.000	103.000
888.000	133.000
889.000	123.000
890.000	124.000
891.000	106.000
892.000	128.000
893.000	126.000
894.000	130.000
895.000	138.000
896.000	121.000
897.000	129.000
898.000	135.000
899.000	154.000
900.000	141.000
901.000	127.000
902.000	175.000
903.000	148.000
904.000	125.000
905.000	134.000
906.000	153.000
907.000	171.000
908.000	166.000
909.000	151.000
910.000	173.000
911.000	180.000
912.000	182.000
913.000	158.000
914.000	166.000
915.000	165.000
916.000	186.000
917.000	175.000
918.000	168.000
919.000	164.000
920.000	183.000
921.000	188.000
922.000	167.000
923.000	158.000
924.000	182.000
925.000	171.000
926.000	189.000
927.000	202.000
928.000	207.000
929.000	200.000
930.000	180.000
931.000	188.000
932.000	201.000
933.000	207.000
934.000	186.000
935.000	227.000
936.000	233.000
937.000	218.000
938.000	240.000
939.000	259.000
940.000	248.000
941.000	256.000
942.000	236.000
943.000	268.000
944.000	278.000
945.000	259.000
946.000	280.000
947.000	246.000
948.000	224.000
949.000	252.000
950.000	242.000
951.000	256.000
952.000	195.000
953.000	215.000
954.000	233.000
955.000	192.000
956.000	200.000
957.000	174.000
958.000	185.000
959.000	179.000
960.000	152.000
961.000	190.000
962.000	193.000
963.000	216.000
964.000	174.000
965.000	186.000
966.000	197.000
967.000	179.000
968.000	176.000
969.000	203.000
970.000	169.000
971.000	194.000
972.000	191.000
973.000	181.000
974.000	178.000
975.000	172.000
976.000	194.000
977.000	168.000
978.000	166.000
979.000	166.000
980.000	186.000
981.000	143.000
982.000	168.000
983.000	161.000
984.000	155.000
985.000	140.000
986.000	152.000
987.000	141.000
988.000	148.000
989.000	131.000
990.000	134.000
991.000	164.000
992.000	140.000
993.000	123.000
994.000	147.000
995.000	135.000
996.000	134.000
997.000	123.000
998.000	111.000
999.000	134.000
1000.000	155.000
1001.000	143.000
1002.000	153.000
1003.000	139.000
1004.000	136.000
1005.000	125.000
1006.000	131.000
1007.000	129.000
1008.000	122.000
1009.000	129.000
1010.000	146.000
1011.000	119.000
1012.000	131.000
1013.000	139.000
1014.000	131.000
1015.000	120.000
1016.000	134.000
1017.000	103.000
1018.000	126.000
1019.000	152.000
1020.000	141.000
1021.000	122.000
1022.000	143.000
1023.000	150.000
1024.000	133.000
1025.000	162.000
1026.000	123.000
1027.000	121.000
1028.000	140.000
1029.000	125.000
1030.000	156.000
1031.000	120.000
1032.000	145.000
1033.000	140.000
1034.000	155.000
1035.000	168.000
1036.000	140.000
1037.000	145.000
1038.000	146.000
1039.000	130.000
1040.000	131.000
1041.000	151.000
1042.000	137.000
1043.000	139.000
1044.000	135.000
1045.000	162.000
1046.000	139.000
1047.000	162.000
1048.000	158.000
1049.000	170.000
1050.000	172.000
1051.000	141.000
1052.000	163.000
1053.000	141.000
1054.000	174.000
1055.000	142.000
1056.000	152.000
1057.000	169.000
1058.000	162.000
1059.000	171.000
1060.000	162.000
1061.000	159.000
1062.000	158.000
1063.000	164.000
1064.000	160.000
1065.000	163.000
1066.000	152.000
1067.000	179.000
1068.000	160.000
1069.000	162.000
1070.000	144.000
1071.000	145.000
1072.000	166.000
1073.000	154.000
1074.000	163.000
1075.000	165.000
1076.000	165.000
1077.000	175.000
1078.000	164.000
1079.000	145.000
1080.000	154.000
1081.000	152.000
1082.000	173.000
1083.000	165.000
1084.000	146.000
1085.000	180.000
1086.000	153.000
1087.000	184.000
1088.000	159.000
1089.000	138.000
1090.000	144.000
1091.000	166.000
1092.000	171.000
1093.000	137.000
1094.000	174.000
1095.000	166.000
1096.000	147.000
1097.000	176.000
1098.000	177.000
1099.000	173.000
1100.000	176.000
1101.000	152.000
1102.000	169.000
1103.000	189.000
1104.000	171.000
1105.000	184.000
1106.000	175.000
1107.000	172.000
1108.000	141.000
1109.000	195.000
1110.000	154.000
1111.000	193.000
1112.000	145.000
1113.000	172.000
1114.000	164.000
1115.000	137.000
1116.000	153.000
1117.000	149.000
1118.000	150.000
1119.000	154.000
1120.000	177.000
1121.000	146.000
1122.000	169.000
1123.000	165.000
1124.000	144.000
1125.000	153.000
1126.000	167.000
1127.000	154.000
1128.000	140.000
1129.000	176.000
1130.000	153.000
1131.000	188.000
1132.000	174.000
1133.000	159.000
1134.000	172.000
1135.000	152.000
1136.000	159.000
1137.000	167.000
1138.000	169.000
1139.000	167.000
1140.000	183.000
1141.000	189.000
1142.000	161.000
1143.000	189.000
1144.000	171.000
1145.000	161.000
1146.000	162.000
1147.000	153.000
1148.000	154.000
1149.000	147.000
1150.000	158.000
1151.000	161.000
1152.000	179.000
1153.000	178.000
1154.000	167.000
1155.000	171.000
1156.000	181.000
1157.000	177.000
