Date:	23-Sep-20		Time:	9:55 PM		Version no:	0.00		Project name:	55		Sample name:	222		Section name:	section		Position	1099.745018	mm	E0	0.000000	keV	E1	1.000000	keV/channel	sample surface	7.311284	cm	Tube anode:	Mo		Tube voltage:	30	kV	Tube current:	30	mA	gain	15		std. database			resultfile	result		matrix element	11		sample thickness	1.000000		air passage	0.560000	cm	comments	in position		peaking_time	0.300000	m-sec	trigger_threshold	40.000000	V	mca_bin_width	2.000000	no:	number_mca_channels	2048.000000	no:	gap_time	2048.000000	m-sec	trigger_peaking_time	2048.000000	m-sec	GAINDAC	400		HIGHGAIN	400		TAURC	400		RCTAU	400		RCTAUFRAC	400		livetime	13.488572	seconds	runtime	15.000046	seconds	input_count_rate	48570.450598	cps	output_count_rate	43676.264604	cps	triggers	717012	seconds	events_in_run	640506	seconds	channel	content		1.000	0.000
2.000	0.000
3.000	0.000
4.000	0.000
5.000	0.000
6.000	0.000
7.000	0.000
8.000	0.000
9.000	0.000
10.000	0.000
11.000	0.000
12.000	0.000
13.000	0.000
14.000	0.000
15.000	0.000
16.000	0.000
17.000	0.000
18.000	0.000
19.000	0.000
20.000	0.000
21.000	0.000
22.000	0.000
23.000	0.000
24.000	0.000
25.000	0.000
26.000	0.000
27.000	0.000
28.000	0.000
29.000	0.000
30.000	0.000
31.000	1.000
32.000	0.000
33.000	0.000
34.000	1.000
35.000	2.000
36.000	0.000
37.000	0.000
38.000	0.000
39.000	0.000
40.000	0.000
41.000	0.000
42.000	0.000
43.000	0.000
44.000	0.000
45.000	0.000
46.000	1.000
47.000	1.000
48.000	0.000
49.000	0.000
50.000	0.000
51.000	1.000
52.000	1.000
53.000	1.000
54.000	1.000
55.000	7.000
56.000	6.000
57.000	7.000
58.000	9.000
59.000	10.000
60.000	24.000
61.000	13.000
62.000	26.000
63.000	21.000
64.000	33.000
65.000	31.000
66.000	23.000
67.000	19.000
68.000	25.000
69.000	26.000
70.000	31.000
71.000	24.000
72.000	20.000
73.000	26.000
74.000	32.000
75.000	32.000
76.000	22.000
77.000	22.000
78.000	21.000
79.000	20.000
80.000	26.000
81.000	29.000
82.000	26.000
83.000	15.000
84.000	37.000
85.000	27.000
86.000	24.000
87.000	30.000
88.000	28.000
89.000	20.000
90.000	19.000
91.000	28.000
92.000	17.000
93.000	20.000
94.000	20.000
95.000	22.000
96.000	22.000
97.000	25.000
98.000	30.000
99.000	17.000
100.000	23.000
101.000	23.000
102.000	32.000
103.000	19.000
104.000	14.000
105.000	18.000
106.000	12.000
107.000	18.000
108.000	15.000
109.000	29.000
110.000	21.000
111.000	13.000
112.000	17.000
113.000	23.000
114.000	8.000
115.000	20.000
116.000	17.000
117.000	21.000
118.000	17.000
119.000	17.000
120.000	36.000
121.000	16.000
122.000	23.000
123.000	18.000
124.000	10.000
125.000	12.000
126.000	12.000
127.000	16.000
128.000	15.000
129.000	16.000
130.000	12.000
131.000	17.000
132.000	18.000
133.000	13.000
134.000	8.000
135.000	14.000
136.000	13.000
137.000	17.000
138.000	17.000
139.000	29.000
140.000	23.000
141.000	18.000
142.000	20.000
143.000	19.000
144.000	26.000
145.000	25.000
146.000	14.000
147.000	27.000
148.000	25.000
149.000	20.000
150.000	20.000
151.000	23.000
152.000	13.000
153.000	10.000
154.000	16.000
155.000	16.000
156.000	22.000
157.000	21.000
158.000	8.000
159.000	12.000
160.000	16.000
161.000	17.000
162.000	22.000
163.000	20.000
164.000	14.000
165.000	23.000
166.000	19.000
167.000	41.000
168.000	50.000
169.000	60.000
170.000	60.000
171.000	55.000
172.000	67.000
173.000	44.000
174.000	51.000
175.000	41.000
176.000	35.000
177.000	29.000
178.000	28.000
179.000	41.000
180.000	36.000
181.000	38.000
182.000	38.000
183.000	58.000
184.000	63.000
185.000	86.000
186.000	142.000
187.000	149.000
188.000	190.000
189.000	214.000
190.000	246.000
191.000	232.000
192.000	262.000
193.000	228.000
194.000	187.000
195.000	150.000
196.000	133.000
197.000	69.000
198.000	62.000
199.000	32.000
200.000	29.000
201.000	19.000
202.000	27.000
203.000	25.000
204.000	13.000
205.000	20.000
206.000	19.000
207.000	15.000
208.000	19.000
209.000	17.000
210.000	23.000
211.000	15.000
212.000	8.000
213.000	25.000
214.000	21.000
215.000	20.000
216.000	28.000
217.000	26.000
218.000	42.000
219.000	38.000
220.000	45.000
221.000	45.000
222.000	35.000
223.000	43.000
224.000	43.000
225.000	51.000
226.000	43.000
227.000	37.000
228.000	36.000
229.000	34.000
230.000	26.000
231.000	16.000
232.000	20.000
233.000	13.000
234.000	17.000
235.000	12.000
236.000	9.000
237.000	16.000
238.000	15.000
239.000	14.000
240.000	10.000
241.000	13.000
242.000	11.000
243.000	14.000
244.000	10.000
245.000	19.000
246.000	26.000
247.000	16.000
248.000	21.000
249.000	43.000
250.000	44.000
251.000	61.000
252.000	85.000
253.000	118.000
254.000	113.000
255.000	128.000
256.000	148.000
257.000	156.000
258.000	165.000
259.000	140.000
260.000	109.000
261.000	97.000
262.000	82.000
263.000	61.000
264.000	44.000
265.000	34.000
266.000	27.000
267.000	23.000
268.000	36.000
269.000	23.000
270.000	27.000
271.000	24.000
272.000	23.000
273.000	24.000
274.000	30.000
275.000	29.000
276.000	30.000
277.000	25.000
278.000	31.000
279.000	32.000
280.000	28.000
281.000	21.000
282.000	32.000
283.000	44.000
284.000	49.000
285.000	44.000
286.000	62.000
287.000	73.000
288.000	81.000
289.000	86.000
290.000	95.000
291.000	89.000
292.000	80.000
293.000	60.000
294.000	62.000
295.000	41.000
296.000	57.000
297.000	39.000
298.000	24.000
299.000	26.000
300.000	23.000
301.000	17.000
302.000	18.000
303.000	16.000
304.000	27.000
305.000	26.000
306.000	33.000
307.000	29.000
308.000	31.000
309.000	33.000
310.000	36.000
311.000	31.000
312.000	39.000
313.000	44.000
314.000	52.000
315.000	80.000
316.000	77.000
317.000	105.000
318.000	138.000
319.000	172.000
320.000	198.000
321.000	229.000
322.000	274.000
323.000	282.000
324.000	334.000
325.000	327.000
326.000	311.000
327.000	286.000
328.000	251.000
329.000	187.000
330.000	153.000
331.000	133.000
332.000	100.000
333.000	90.000
334.000	51.000
335.000	49.000
336.000	41.000
337.000	31.000
338.000	32.000
339.000	51.000
340.000	44.000
341.000	57.000
342.000	78.000
343.000	89.000
344.000	107.000
345.000	150.000
346.000	220.000
347.000	324.000
348.000	478.000
349.000	751.000
350.000	1201.000
351.000	1822.000
352.000	2903.000
353.000	4141.000
354.000	6043.000
355.000	8122.000
356.000	10619.000
357.000	13228.000
358.000	15858.000
359.000	18173.000
360.000	19655.000
361.000	20854.000
362.000	20586.000
363.000	19591.000
364.000	17393.000
365.000	14969.000
366.000	12627.000
367.000	9643.000
368.000	7449.000
369.000	5266.000
370.000	3559.000
371.000	2380.000
372.000	1497.000
373.000	911.000
374.000	565.000
375.000	348.000
376.000	247.000
377.000	172.000
378.000	180.000
379.000	167.000
380.000	212.000
381.000	304.000
382.000	393.000
383.000	510.000
384.000	672.000
385.000	948.000
386.000	1215.000
387.000	1620.000
388.000	1897.000
389.000	2312.000
390.000	2661.000
391.000	2829.000
392.000	3107.000
393.000	2974.000
394.000	3025.000
395.000	2743.000
396.000	2425.000
397.000	2092.000
398.000	1727.000
399.000	1281.000
400.000	989.000
401.000	740.000
402.000	487.000
403.000	352.000
404.000	234.000
405.000	150.000
406.000	69.000
407.000	52.000
408.000	40.000
409.000	22.000
410.000	15.000
411.000	8.000
412.000	7.000
413.000	4.000
414.000	6.000
415.000	7.000
416.000	9.000
417.000	7.000
418.000	9.000
419.000	9.000
420.000	10.000
421.000	9.000
422.000	5.000
423.000	10.000
424.000	8.000
425.000	8.000
426.000	14.000
427.000	12.000
428.000	22.000
429.000	19.000
430.000	22.000
431.000	29.000
432.000	37.000
433.000	57.000
434.000	96.000
435.000	108.000
436.000	132.000
437.000	156.000
438.000	185.000
439.000	176.000
440.000	191.000
441.000	223.000
442.000	218.000
443.000	202.000
444.000	177.000
445.000	155.000
446.000	155.000
447.000	125.000
448.000	93.000
449.000	65.000
450.000	47.000
451.000	52.000
452.000	22.000
453.000	37.000
454.000	34.000
455.000	37.000
456.000	35.000
457.000	26.000
458.000	24.000
459.000	24.000
460.000	22.000
461.000	22.000
462.000	21.000
463.000	23.000
464.000	15.000
465.000	15.000
466.000	9.000
467.000	14.000
468.000	17.000
469.000	22.000
470.000	14.000
471.000	17.000
472.000	23.000
473.000	21.000
474.000	30.000
475.000	36.000
476.000	30.000
477.000	33.000
478.000	39.000
479.000	45.000
480.000	57.000
481.000	46.000
482.000	46.000
483.000	41.000
484.000	45.000
485.000	47.000
486.000	53.000
487.000	53.000
488.000	43.000
489.000	28.000
490.000	25.000
491.000	29.000
492.000	16.000
493.000	14.000
494.000	18.000
495.000	21.000
496.000	19.000
497.000	12.000
498.000	17.000
499.000	10.000
500.000	12.000
501.000	13.000
502.000	14.000
503.000	21.000
504.000	18.000
505.000	21.000
506.000	18.000
507.000	17.000
508.000	17.000
509.000	24.000
510.000	25.000
511.000	19.000
512.000	23.000
513.000	30.000
514.000	27.000
515.000	25.000
516.000	26.000
517.000	19.000
518.000	27.000
519.000	25.000
520.000	21.000
521.000	30.000
522.000	44.000
523.000	30.000
524.000	35.000
525.000	37.000
526.000	42.000
527.000	36.000
528.000	43.000
529.000	44.000
530.000	24.000
531.000	42.000
532.000	39.000
533.000	32.000
534.000	28.000
535.000	28.000
536.000	25.000
537.000	25.000
538.000	22.000
539.000	19.000
540.000	17.000
541.000	28.000
542.000	22.000
543.000	22.000
544.000	24.000
545.000	18.000
546.000	21.000
547.000	22.000
548.000	24.000
549.000	19.000
550.000	30.000
551.000	24.000
552.000	27.000
553.000	29.000
554.000	21.000
555.000	28.000
556.000	29.000
557.000	33.000
558.000	20.000
559.000	28.000
560.000	45.000
561.000	34.000
562.000	34.000
563.000	42.000
564.000	32.000
565.000	32.000
566.000	53.000
567.000	57.000
568.000	72.000
569.000	84.000
570.000	82.000
571.000	92.000
572.000	113.000
573.000	105.000
574.000	104.000
575.000	107.000
576.000	110.000
577.000	115.000
578.000	127.000
579.000	119.000
580.000	110.000
581.000	98.000
582.000	97.000
583.000	84.000
584.000	68.000
585.000	63.000
586.000	56.000
587.000	38.000
588.000	37.000
589.000	49.000
590.000	33.000
591.000	29.000
592.000	33.000
593.000	36.000
594.000	31.000
595.000	23.000
596.000	28.000
597.000	29.000
598.000	32.000
599.000	38.000
600.000	39.000
601.000	35.000
602.000	45.000
603.000	44.000
604.000	52.000
605.000	45.000
606.000	66.000
607.000	78.000
608.000	108.000
609.000	158.000
610.000	190.000
611.000	289.000
612.000	419.000
613.000	488.000
614.000	780.000
615.000	1050.000
616.000	1298.000
617.000	1716.000
618.000	2233.000
619.000	2659.000
620.000	3007.000
621.000	3718.000
622.000	4062.000
623.000	4497.000
624.000	4642.000
625.000	4817.000
626.000	4684.000
627.000	4433.000
628.000	4220.000
629.000	3968.000
630.000	3459.000
631.000	2949.000
632.000	2378.000
633.000	1938.000
634.000	1557.000
635.000	1195.000
636.000	930.000
637.000	688.000
638.000	450.000
639.000	356.000
640.000	232.000
641.000	206.000
642.000	126.000
643.000	107.000
644.000	86.000
645.000	76.000
646.000	55.000
647.000	64.000
648.000	57.000
649.000	55.000
650.000	56.000
651.000	49.000
652.000	56.000
653.000	51.000
654.000	71.000
655.000	55.000
656.000	49.000
657.000	60.000
658.000	56.000
659.000	66.000
660.000	63.000
661.000	60.000
662.000	72.000
663.000	57.000
664.000	55.000
665.000	63.000
666.000	82.000
667.000	76.000
668.000	69.000
669.000	80.000
670.000	74.000
671.000	85.000
672.000	92.000
673.000	85.000
674.000	113.000
675.000	136.000
676.000	163.000
677.000	219.000
678.000	205.000
679.000	257.000
680.000	306.000
681.000	388.000
682.000	445.000
683.000	553.000
684.000	601.000
685.000	647.000
686.000	732.000
687.000	773.000
688.000	823.000
689.000	841.000
690.000	812.000
691.000	739.000
692.000	663.000
693.000	664.000
694.000	613.000
695.000	536.000
696.000	466.000
697.000	387.000
698.000	325.000
699.000	238.000
700.000	223.000
701.000	165.000
702.000	138.000
703.000	129.000
704.000	93.000
705.000	96.000
706.000	70.000
707.000	72.000
708.000	69.000
709.000	77.000
710.000	66.000
711.000	57.000
712.000	64.000
713.000	63.000
714.000	70.000
715.000	66.000
716.000	85.000
717.000	82.000
718.000	80.000
719.000	80.000
720.000	92.000
721.000	83.000
722.000	90.000
723.000	81.000
724.000	99.000
725.000	99.000
726.000	98.000
727.000	80.000
728.000	86.000
729.000	93.000
730.000	98.000
731.000	90.000
732.000	87.000
733.000	78.000
734.000	99.000
735.000	79.000
736.000	85.000
737.000	83.000
738.000	71.000
739.000	68.000
740.000	69.000
741.000	63.000
742.000	52.000
743.000	67.000
744.000	72.000
745.000	64.000
746.000	67.000
747.000	55.000
748.000	50.000
749.000	98.000
750.000	72.000
751.000	76.000
752.000	66.000
753.000	64.000
754.000	76.000
755.000	72.000
756.000	74.000
757.000	66.000
758.000	70.000
759.000	70.000
760.000	65.000
761.000	74.000
762.000	76.000
763.000	75.000
764.000	74.000
765.000	86.000
766.000	76.000
767.000	82.000
768.000	85.000
769.000	69.000
770.000	74.000
771.000	62.000
772.000	80.000
773.000	75.000
774.000	87.000
775.000	76.000
776.000	73.000
777.000	97.000
778.000	101.000
779.000	105.000
780.000	94.000
781.000	104.000
782.000	114.000
783.000	103.000
784.000	108.000
785.000	126.000
786.000	117.000
787.000	144.000
788.000	124.000
789.000	138.000
790.000	136.000
791.000	143.000
792.000	138.000
793.000	138.000
794.000	149.000
795.000	137.000
796.000	155.000
797.000	166.000
798.000	144.000
799.000	125.000
800.000	137.000
801.000	135.000
802.000	161.000
803.000	157.000
804.000	136.000
805.000	147.000
806.000	157.000
807.000	188.000
808.000	195.000
809.000	200.000
810.000	192.000
811.000	205.000
812.000	243.000
813.000	262.000
814.000	265.000
815.000	297.000
816.000	281.000
817.000	302.000
818.000	292.000
819.000	310.000
820.000	323.000
821.000	293.000
822.000	274.000
823.000	288.000
824.000	240.000
825.000	256.000
826.000	226.000
827.000	207.000
828.000	228.000
829.000	143.000
830.000	181.000
831.000	170.000
832.000	159.000
833.000	147.000
834.000	131.000
835.000	111.000
836.000	153.000
837.000	132.000
838.000	119.000
839.000	129.000
840.000	117.000
841.000	147.000
842.000	122.000
843.000	139.000
844.000	125.000
845.000	130.000
846.000	134.000
847.000	130.000
848.000	116.000
849.000	148.000
850.000	142.000
851.000	114.000
852.000	98.000
853.000	110.000
854.000	117.000
855.000	113.000
856.000	120.000
857.000	116.000
858.000	119.000
859.000	120.000
860.000	104.000
861.000	106.000
862.000	130.000
863.000	117.000
864.000	121.000
865.000	128.000
866.000	105.000
867.000	121.000
868.000	116.000
869.000	130.000
870.000	127.000
871.000	113.000
872.000	111.000
873.000	92.000
874.000	124.000
875.000	118.000
876.000	126.000
877.000	107.000
878.000	115.000
879.000	105.000
880.000	113.000
881.000	131.000
882.000	119.000
883.000	115.000
884.000	133.000
885.000	126.000
886.000	110.000
887.000	95.000
888.000	121.000
889.000	129.000
890.000	133.000
891.000	142.000
892.000	125.000
893.000	130.000
894.000	126.000
895.000	130.000
896.000	127.000
897.000	132.000
898.000	130.000
899.000	129.000
900.000	140.000
901.000	138.000
902.000	160.000
903.000	151.000
904.000	142.000
905.000	144.000
906.000	152.000
907.000	151.000
908.000	150.000
909.000	167.000
910.000	188.000
911.000	181.000
912.000	148.000
913.000	171.000
914.000	141.000
915.000	168.000
916.000	190.000
917.000	169.000
918.000	170.000
919.000	186.000
920.000	174.000
921.000	176.000
922.000	191.000
923.000	168.000
924.000	187.000
925.000	186.000
926.000	188.000
927.000	190.000
928.000	190.000
929.000	198.000
930.000	177.000
931.000	178.000
932.000	209.000
933.000	214.000
934.000	235.000
935.000	213.000
936.000	214.000
937.000	252.000
938.000	258.000
939.000	259.000
940.000	235.000
941.000	236.000
942.000	279.000
943.000	284.000
944.000	269.000
945.000	245.000
946.000	284.000
947.000	261.000
948.000	245.000
949.000	250.000
950.000	220.000
951.000	202.000
952.000	247.000
953.000	194.000
954.000	200.000
955.000	195.000
956.000	192.000
957.000	195.000
958.000	210.000
959.000	167.000
960.000	158.000
961.000	183.000
962.000	148.000
963.000	190.000
964.000	178.000
965.000	187.000
966.000	178.000
967.000	188.000
968.000	184.000
969.000	178.000
970.000	172.000
971.000	199.000
972.000	183.000
973.000	172.000
974.000	156.000
975.000	188.000
976.000	159.000
977.000	159.000
978.000	180.000
979.000	159.000
980.000	196.000
981.000	157.000
982.000	168.000
983.000	162.000
984.000	170.000
985.000	162.000
986.000	160.000
987.000	145.000
988.000	137.000
989.000	136.000
990.000	149.000
991.000	167.000
992.000	140.000
993.000	163.000
994.000	128.000
995.000	166.000
996.000	149.000
997.000	135.000
998.000	125.000
999.000	128.000
1000.000	116.000
1001.000	115.000
1002.000	138.000
1003.000	129.000
1004.000	170.000
1005.000	131.000
1006.000	135.000
1007.000	136.000
1008.000	136.000
1009.000	158.000
1010.000	134.000
1011.000	147.000
1012.000	117.000
1013.000	147.000
1014.000	147.000
1015.000	140.000
1016.000	146.000
1017.000	129.000
1018.000	126.000
1019.000	120.000
1020.000	127.000
1021.000	132.000
1022.000	146.000
1023.000	140.000
1024.000	119.000
1025.000	132.000
1026.000	137.000
1027.000	131.000
1028.000	165.000
1029.000	135.000
1030.000	150.000
1031.000	148.000
1032.000	134.000
1033.000	130.000
1034.000	139.000
1035.000	154.000
1036.000	130.000
1037.000	136.000
1038.000	144.000
1039.000	136.000
1040.000	133.000
1041.000	121.000
1042.000	142.000
1043.000	128.000
1044.000	146.000
1045.000	142.000
1046.000	142.000
1047.000	134.000
1048.000	154.000
1049.000	172.000
1050.000	151.000
1051.000	166.000
1052.000	154.000
1053.000	156.000
1054.000	143.000
1055.000	166.000
1056.000	154.000
1057.000	163.000
1058.000	138.000
1059.000	146.000
1060.000	161.000
1061.000	175.000
1062.000	153.000
1063.000	145.000
1064.000	168.000
1065.000	149.000
1066.000	164.000
1067.000	142.000
1068.000	167.000
1069.000	146.000
1070.000	159.000
1071.000	158.000
1072.000	135.000
1073.000	158.000
1074.000	132.000
1075.000	148.000
1076.000	168.000
1077.000	137.000
1078.000	143.000
1079.000	135.000
1080.000	135.000
1081.000	130.000
1082.000	180.000
1083.000	146.000
1084.000	183.000
1085.000	129.000
1086.000	155.000
1087.000	168.000
1088.000	164.000
1089.000	162.000
1090.000	153.000
1091.000	161.000
1092.000	158.000
1093.000	176.000
1094.000	168.000
1095.000	161.000
1096.000	191.000
1097.000	161.000
1098.000	198.000
1099.000	187.000
1100.000	165.000
1101.000	163.000
1102.000	196.000
1103.000	180.000
1104.000	199.000
1105.000	169.000
1106.000	163.000
1107.000	166.000
1108.000	161.000
1109.000	160.000
1110.000	158.000
1111.000	189.000
1112.000	158.000
1113.000	154.000
1114.000	171.000
1115.000	156.000
1116.000	182.000
1117.000	160.000
1118.000	138.000
1119.000	157.000
1120.000	158.000
1121.000	148.000
1122.000	157.000
1123.000	164.000
1124.000	139.000
1125.000	170.000
1126.000	165.000
1127.000	168.000
1128.000	172.000
1129.000	168.000
1130.000	174.000
1131.000	152.000
1132.000	146.000
1133.000	157.000
1134.000	165.000
1135.000	168.000
1136.000	152.000
1137.000	156.000
1138.000	169.000
1139.000	161.000
1140.000	169.000
1141.000	152.000
1142.000	176.000
1143.000	176.000
1144.000	154.000
1145.000	140.000
1146.000	170.000
1147.000	173.000
1148.000	175.000
1149.000	178.000
1150.000	156.000
1151.000	167.000
1152.000	165.000
1153.000	144.000
1154.000	186.000
1155.000	180.000
1156.000	172.000
1157.000	171.000
