Date:	23-Sep-20		Time:	11:25 PM		Version no:	0.00		Project name:	55		Sample name:	222		Section name:	section		Position	1440.745018	mm	E0	0.000000	keV	E1	1.000000	keV/channel	sample surface	7.430701	cm	Tube anode:	Mo		Tube voltage:	30	kV	Tube current:	30	mA	gain	15		std. database			resultfile	result		matrix element	11		sample thickness	1.000000		air passage	0.560000	cm	comments	in position		peaking_time	0.300000	m-sec	trigger_threshold	40.000000	V	mca_bin_width	2.000000	no:	number_mca_channels	2048.000000	no:	gap_time	2048.000000	m-sec	trigger_peaking_time	2048.000000	m-sec	GAINDAC	400		HIGHGAIN	400		TAURC	400		RCTAU	400		RCTAUFRAC	400		livetime	13.388913	seconds	runtime	15.000301	seconds	input_count_rate	47285.318178	cps	output_count_rate	42205.753071	cps	triggers	697474	seconds	events_in_run	616763	seconds	channel	content		1.000	0.000
2.000	0.000
3.000	0.000
4.000	0.000
5.000	0.000
6.000	0.000
7.000	0.000
8.000	0.000
9.000	0.000
10.000	0.000
11.000	0.000
12.000	0.000
13.000	0.000
14.000	0.000
15.000	0.000
16.000	0.000
17.000	0.000
18.000	0.000
19.000	0.000
20.000	0.000
21.000	0.000
22.000	0.000
23.000	0.000
24.000	0.000
25.000	0.000
26.000	0.000
27.000	0.000
28.000	0.000
29.000	0.000
30.000	0.000
31.000	1.000
32.000	0.000
33.000	0.000
34.000	0.000
35.000	0.000
36.000	1.000
37.000	0.000
38.000	0.000
39.000	0.000
40.000	1.000
41.000	0.000
42.000	0.000
43.000	0.000
44.000	0.000
45.000	0.000
46.000	0.000
47.000	0.000
48.000	0.000
49.000	0.000
50.000	2.000
51.000	1.000
52.000	4.000
53.000	2.000
54.000	6.000
55.000	5.000
56.000	5.000
57.000	12.000
58.000	10.000
59.000	17.000
60.000	16.000
61.000	19.000
62.000	33.000
63.000	31.000
64.000	30.000
65.000	37.000
66.000	20.000
67.000	36.000
68.000	24.000
69.000	27.000
70.000	20.000
71.000	28.000
72.000	21.000
73.000	19.000
74.000	18.000
75.000	38.000
76.000	29.000
77.000	31.000
78.000	17.000
79.000	15.000
80.000	26.000
81.000	25.000
82.000	17.000
83.000	21.000
84.000	22.000
85.000	23.000
86.000	30.000
87.000	21.000
88.000	30.000
89.000	22.000
90.000	23.000
91.000	29.000
92.000	18.000
93.000	27.000
94.000	19.000
95.000	25.000
96.000	21.000
97.000	12.000
98.000	18.000
99.000	17.000
100.000	18.000
101.000	24.000
102.000	17.000
103.000	22.000
104.000	23.000
105.000	15.000
106.000	16.000
107.000	22.000
108.000	15.000
109.000	17.000
110.000	22.000
111.000	21.000
112.000	21.000
113.000	22.000
114.000	15.000
115.000	25.000
116.000	13.000
117.000	12.000
118.000	23.000
119.000	18.000
120.000	24.000
121.000	16.000
122.000	21.000
123.000	19.000
124.000	19.000
125.000	9.000
126.000	14.000
127.000	15.000
128.000	22.000
129.000	18.000
130.000	22.000
131.000	17.000
132.000	23.000
133.000	11.000
134.000	14.000
135.000	11.000
136.000	13.000
137.000	10.000
138.000	16.000
139.000	14.000
140.000	23.000
141.000	21.000
142.000	29.000
143.000	23.000
144.000	14.000
145.000	34.000
146.000	28.000
147.000	29.000
148.000	29.000
149.000	33.000
150.000	22.000
151.000	24.000
152.000	27.000
153.000	23.000
154.000	23.000
155.000	20.000
156.000	12.000
157.000	20.000
158.000	8.000
159.000	13.000
160.000	20.000
161.000	5.000
162.000	14.000
163.000	27.000
164.000	29.000
165.000	40.000
166.000	54.000
167.000	86.000
168.000	91.000
169.000	104.000
170.000	119.000
171.000	101.000
172.000	98.000
173.000	99.000
174.000	72.000
175.000	68.000
176.000	54.000
177.000	35.000
178.000	37.000
179.000	29.000
180.000	32.000
181.000	43.000
182.000	34.000
183.000	35.000
184.000	32.000
185.000	55.000
186.000	61.000
187.000	62.000
188.000	89.000
189.000	99.000
190.000	105.000
191.000	106.000
192.000	114.000
193.000	102.000
194.000	84.000
195.000	70.000
196.000	52.000
197.000	49.000
198.000	36.000
199.000	28.000
200.000	15.000
201.000	22.000
202.000	10.000
203.000	13.000
204.000	16.000
205.000	13.000
206.000	14.000
207.000	11.000
208.000	15.000
209.000	13.000
210.000	8.000
211.000	17.000
212.000	5.000
213.000	11.000
214.000	20.000
215.000	12.000
216.000	17.000
217.000	12.000
218.000	24.000
219.000	30.000
220.000	23.000
221.000	27.000
222.000	34.000
223.000	36.000
224.000	28.000
225.000	25.000
226.000	24.000
227.000	24.000
228.000	24.000
229.000	20.000
230.000	25.000
231.000	14.000
232.000	24.000
233.000	13.000
234.000	12.000
235.000	10.000
236.000	10.000
237.000	13.000
238.000	7.000
239.000	12.000
240.000	12.000
241.000	19.000
242.000	8.000
243.000	7.000
244.000	11.000
245.000	15.000
246.000	17.000
247.000	19.000
248.000	22.000
249.000	15.000
250.000	42.000
251.000	39.000
252.000	74.000
253.000	106.000
254.000	102.000
255.000	116.000
256.000	141.000
257.000	142.000
258.000	145.000
259.000	120.000
260.000	96.000
261.000	88.000
262.000	65.000
263.000	54.000
264.000	45.000
265.000	24.000
266.000	23.000
267.000	19.000
268.000	15.000
269.000	17.000
270.000	12.000
271.000	15.000
272.000	21.000
273.000	28.000
274.000	22.000
275.000	33.000
276.000	18.000
277.000	31.000
278.000	20.000
279.000	24.000
280.000	16.000
281.000	26.000
282.000	21.000
283.000	33.000
284.000	49.000
285.000	41.000
286.000	46.000
287.000	53.000
288.000	62.000
289.000	69.000
290.000	83.000
291.000	74.000
292.000	58.000
293.000	56.000
294.000	57.000
295.000	42.000
296.000	31.000
297.000	32.000
298.000	27.000
299.000	22.000
300.000	13.000
301.000	23.000
302.000	13.000
303.000	9.000
304.000	17.000
305.000	14.000
306.000	22.000
307.000	16.000
308.000	17.000
309.000	21.000
310.000	21.000
311.000	33.000
312.000	39.000
313.000	55.000
314.000	68.000
315.000	91.000
316.000	127.000
317.000	166.000
318.000	241.000
319.000	319.000
320.000	420.000
321.000	488.000
322.000	575.000
323.000	648.000
324.000	713.000
325.000	717.000
326.000	640.000
327.000	596.000
328.000	527.000
329.000	394.000
330.000	337.000
331.000	264.000
332.000	171.000
333.000	123.000
334.000	117.000
335.000	47.000
336.000	36.000
337.000	33.000
338.000	24.000
339.000	30.000
340.000	29.000
341.000	38.000
342.000	56.000
343.000	62.000
344.000	85.000
345.000	86.000
346.000	145.000
347.000	202.000
348.000	275.000
349.000	465.000
350.000	640.000
351.000	955.000
352.000	1486.000
353.000	2075.000
354.000	2754.000
355.000	3904.000
356.000	5163.000
357.000	6397.000
358.000	7593.000
359.000	8620.000
360.000	9596.000
361.000	9799.000
362.000	9722.000
363.000	9309.000
364.000	8238.000
365.000	7251.000
366.000	5971.000
367.000	4772.000
368.000	3433.000
369.000	2497.000
370.000	1716.000
371.000	1155.000
372.000	758.000
373.000	472.000
374.000	276.000
375.000	183.000
376.000	129.000
377.000	87.000
378.000	78.000
379.000	90.000
380.000	97.000
381.000	118.000
382.000	197.000
383.000	260.000
384.000	332.000
385.000	447.000
386.000	580.000
387.000	758.000
388.000	915.000
389.000	1128.000
390.000	1285.000
391.000	1401.000
392.000	1536.000
393.000	1520.000
394.000	1402.000
395.000	1382.000
396.000	1164.000
397.000	983.000
398.000	900.000
399.000	666.000
400.000	516.000
401.000	370.000
402.000	254.000
403.000	161.000
404.000	118.000
405.000	76.000
406.000	49.000
407.000	25.000
408.000	14.000
409.000	14.000
410.000	11.000
411.000	6.000
412.000	18.000
413.000	10.000
414.000	13.000
415.000	7.000
416.000	10.000
417.000	15.000
418.000	4.000
419.000	12.000
420.000	14.000
421.000	10.000
422.000	9.000
423.000	14.000
424.000	11.000
425.000	15.000
426.000	16.000
427.000	17.000
428.000	16.000
429.000	40.000
430.000	57.000
431.000	63.000
432.000	97.000
433.000	141.000
434.000	139.000
435.000	209.000
436.000	223.000
437.000	273.000
438.000	366.000
439.000	362.000
440.000	380.000
441.000	392.000
442.000	365.000
443.000	393.000
444.000	336.000
445.000	266.000
446.000	254.000
447.000	187.000
448.000	188.000
449.000	122.000
450.000	107.000
451.000	101.000
452.000	73.000
453.000	79.000
454.000	66.000
455.000	57.000
456.000	56.000
457.000	40.000
458.000	44.000
459.000	49.000
460.000	44.000
461.000	35.000
462.000	28.000
463.000	25.000
464.000	20.000
465.000	26.000
466.000	33.000
467.000	26.000
468.000	24.000
469.000	30.000
470.000	37.000
471.000	33.000
472.000	38.000
473.000	41.000
474.000	48.000
475.000	65.000
476.000	70.000
477.000	64.000
478.000	70.000
479.000	89.000
480.000	90.000
481.000	73.000
482.000	88.000
483.000	86.000
484.000	99.000
485.000	66.000
486.000	77.000
487.000	62.000
488.000	56.000
489.000	50.000
490.000	54.000
491.000	33.000
492.000	40.000
493.000	27.000
494.000	32.000
495.000	22.000
496.000	26.000
497.000	30.000
498.000	28.000
499.000	28.000
500.000	25.000
501.000	26.000
502.000	22.000
503.000	26.000
504.000	24.000
505.000	23.000
506.000	22.000
507.000	22.000
508.000	31.000
509.000	32.000
510.000	37.000
511.000	34.000
512.000	25.000
513.000	28.000
514.000	38.000
515.000	31.000
516.000	32.000
517.000	42.000
518.000	35.000
519.000	47.000
520.000	35.000
521.000	36.000
522.000	47.000
523.000	61.000
524.000	55.000
525.000	55.000
526.000	50.000
527.000	61.000
528.000	63.000
529.000	58.000
530.000	73.000
531.000	55.000
532.000	64.000
533.000	53.000
534.000	50.000
535.000	53.000
536.000	44.000
537.000	30.000
538.000	38.000
539.000	35.000
540.000	24.000
541.000	31.000
542.000	29.000
543.000	24.000
544.000	27.000
545.000	29.000
546.000	30.000
547.000	34.000
548.000	34.000
549.000	29.000
550.000	35.000
551.000	31.000
552.000	25.000
553.000	32.000
554.000	25.000
555.000	37.000
556.000	24.000
557.000	35.000
558.000	43.000
559.000	29.000
560.000	24.000
561.000	40.000
562.000	48.000
563.000	53.000
564.000	60.000
565.000	62.000
566.000	65.000
567.000	80.000
568.000	92.000
569.000	105.000
570.000	114.000
571.000	120.000
572.000	134.000
573.000	154.000
574.000	167.000
575.000	185.000
576.000	166.000
577.000	187.000
578.000	195.000
579.000	158.000
580.000	141.000
581.000	129.000
582.000	139.000
583.000	110.000
584.000	96.000
585.000	78.000
586.000	76.000
587.000	58.000
588.000	61.000
589.000	48.000
590.000	54.000
591.000	47.000
592.000	48.000
593.000	51.000
594.000	40.000
595.000	34.000
596.000	50.000
597.000	57.000
598.000	47.000
599.000	61.000
600.000	54.000
601.000	56.000
602.000	59.000
603.000	74.000
604.000	78.000
605.000	92.000
606.000	123.000
607.000	163.000
608.000	219.000
609.000	301.000
610.000	405.000
611.000	578.000
612.000	856.000
613.000	1157.000
614.000	1651.000
615.000	2153.000
616.000	2918.000
617.000	3854.000
618.000	4677.000
619.000	5906.000
620.000	6870.000
621.000	7906.000
622.000	8987.000
623.000	9652.000
624.000	10272.000
625.000	10537.000
626.000	10495.000
627.000	10071.000
628.000	9399.000
629.000	8460.000
630.000	7512.000
631.000	6313.000
632.000	5310.000
633.000	4345.000
634.000	3338.000
635.000	2644.000
636.000	1934.000
637.000	1389.000
638.000	899.000
639.000	750.000
640.000	495.000
641.000	351.000
642.000	253.000
643.000	156.000
644.000	154.000
645.000	99.000
646.000	93.000
647.000	84.000
648.000	95.000
649.000	72.000
650.000	71.000
651.000	55.000
652.000	82.000
653.000	70.000
654.000	67.000
655.000	78.000
656.000	74.000
657.000	68.000
658.000	71.000
659.000	78.000
660.000	90.000
661.000	82.000
662.000	78.000
663.000	105.000
664.000	101.000
665.000	86.000
666.000	102.000
667.000	99.000
668.000	83.000
669.000	102.000
670.000	135.000
671.000	158.000
672.000	163.000
673.000	153.000
674.000	207.000
675.000	238.000
676.000	272.000
677.000	342.000
678.000	420.000
679.000	519.000
680.000	676.000
681.000	785.000
682.000	917.000
683.000	1101.000
684.000	1234.000
685.000	1367.000
686.000	1478.000
687.000	1599.000
688.000	1658.000
689.000	1666.000
690.000	1778.000
691.000	1599.000
692.000	1580.000
693.000	1337.000
694.000	1282.000
695.000	1130.000
696.000	986.000
697.000	825.000
698.000	631.000
699.000	514.000
700.000	430.000
701.000	328.000
702.000	208.000
703.000	209.000
704.000	133.000
705.000	139.000
706.000	95.000
707.000	84.000
708.000	72.000
709.000	77.000
710.000	75.000
711.000	57.000
712.000	69.000
713.000	64.000
714.000	72.000
715.000	72.000
716.000	80.000
717.000	70.000
718.000	73.000
719.000	83.000
720.000	78.000
721.000	85.000
722.000	98.000
723.000	87.000
724.000	112.000
725.000	106.000
726.000	111.000
727.000	96.000
728.000	108.000
729.000	94.000
730.000	108.000
731.000	124.000
732.000	114.000
733.000	103.000
734.000	114.000
735.000	94.000
736.000	88.000
737.000	98.000
738.000	102.000
739.000	74.000
740.000	66.000
741.000	87.000
742.000	75.000
743.000	71.000
744.000	69.000
745.000	68.000
746.000	73.000
747.000	89.000
748.000	72.000
749.000	75.000
750.000	81.000
751.000	72.000
752.000	71.000
753.000	96.000
754.000	53.000
755.000	80.000
756.000	77.000
757.000	83.000
758.000	76.000
759.000	83.000
760.000	97.000
761.000	81.000
762.000	88.000
763.000	80.000
764.000	72.000
765.000	78.000
766.000	86.000
767.000	86.000
768.000	77.000
769.000	91.000
770.000	105.000
771.000	81.000
772.000	94.000
773.000	103.000
774.000	101.000
775.000	86.000
776.000	123.000
777.000	113.000
778.000	112.000
779.000	135.000
780.000	130.000
781.000	147.000
782.000	141.000
783.000	161.000
784.000	151.000
785.000	156.000
786.000	151.000
787.000	143.000
788.000	145.000
789.000	176.000
790.000	161.000
791.000	168.000
792.000	142.000
793.000	160.000
794.000	164.000
795.000	166.000
796.000	162.000
797.000	174.000
798.000	171.000
799.000	181.000
800.000	171.000
801.000	179.000
802.000	178.000
803.000	165.000
804.000	176.000
805.000	172.000
806.000	194.000
807.000	190.000
808.000	176.000
809.000	204.000
810.000	211.000
811.000	217.000
812.000	230.000
813.000	301.000
814.000	299.000
815.000	281.000
816.000	305.000
817.000	320.000
818.000	340.000
819.000	322.000
820.000	329.000
821.000	310.000
822.000	310.000
823.000	303.000
824.000	281.000
825.000	261.000
826.000	253.000
827.000	230.000
828.000	214.000
829.000	193.000
830.000	180.000
831.000	158.000
832.000	171.000
833.000	151.000
834.000	153.000
835.000	143.000
836.000	149.000
837.000	144.000
838.000	148.000
839.000	168.000
840.000	146.000
841.000	145.000
842.000	157.000
843.000	142.000
844.000	150.000
845.000	139.000
846.000	162.000
847.000	153.000
848.000	145.000
849.000	139.000
850.000	109.000
851.000	146.000
852.000	121.000
853.000	144.000
854.000	135.000
855.000	141.000
856.000	143.000
857.000	116.000
858.000	123.000
859.000	142.000
860.000	153.000
861.000	122.000
862.000	133.000
863.000	110.000
864.000	112.000
865.000	126.000
866.000	143.000
867.000	122.000
868.000	139.000
869.000	122.000
870.000	133.000
871.000	140.000
872.000	125.000
873.000	127.000
874.000	127.000
875.000	126.000
876.000	101.000
877.000	135.000
878.000	139.000
879.000	121.000
880.000	124.000
881.000	131.000
882.000	143.000
883.000	108.000
884.000	134.000
885.000	145.000
886.000	131.000
887.000	129.000
888.000	123.000
889.000	133.000
890.000	143.000
891.000	138.000
892.000	143.000
893.000	167.000
894.000	145.000
895.000	164.000
896.000	135.000
897.000	154.000
898.000	182.000
899.000	170.000
900.000	162.000
901.000	153.000
902.000	171.000
903.000	178.000
904.000	173.000
905.000	165.000
906.000	178.000
907.000	170.000
908.000	160.000
909.000	174.000
910.000	189.000
911.000	189.000
912.000	205.000
913.000	185.000
914.000	175.000
915.000	205.000
916.000	182.000
917.000	196.000
918.000	201.000
919.000	188.000
920.000	179.000
921.000	215.000
922.000	207.000
923.000	216.000
924.000	188.000
925.000	186.000
926.000	205.000
927.000	214.000
928.000	225.000
929.000	234.000
930.000	216.000
931.000	210.000
932.000	209.000
933.000	231.000
934.000	232.000
935.000	240.000
936.000	243.000
937.000	257.000
938.000	263.000
939.000	255.000
940.000	273.000
941.000	256.000
942.000	292.000
943.000	276.000
944.000	259.000
945.000	293.000
946.000	270.000
947.000	259.000
948.000	248.000
949.000	259.000
950.000	239.000
951.000	256.000
952.000	225.000
953.000	222.000
954.000	213.000
955.000	191.000
956.000	194.000
957.000	180.000
958.000	195.000
959.000	192.000
960.000	198.000
961.000	200.000
962.000	177.000
963.000	223.000
964.000	205.000
965.000	187.000
966.000	190.000
967.000	208.000
968.000	204.000
969.000	200.000
970.000	212.000
971.000	224.000
972.000	206.000
973.000	210.000
974.000	189.000
975.000	183.000
976.000	196.000
977.000	212.000
978.000	193.000
979.000	208.000
980.000	187.000
981.000	193.000
982.000	180.000
983.000	181.000
984.000	176.000
985.000	158.000
986.000	185.000
987.000	160.000
988.000	166.000
989.000	171.000
990.000	154.000
991.000	140.000
992.000	161.000
993.000	130.000
994.000	174.000
995.000	141.000
996.000	158.000
997.000	140.000
998.000	131.000
999.000	149.000
1000.000	148.000
1001.000	152.000
1002.000	134.000
1003.000	136.000
1004.000	145.000
1005.000	141.000
1006.000	151.000
1007.000	138.000
1008.000	126.000
1009.000	154.000
1010.000	147.000
1011.000	143.000
1012.000	150.000
1013.000	170.000
1014.000	154.000
1015.000	147.000
1016.000	148.000
1017.000	143.000
1018.000	149.000
1019.000	147.000
1020.000	180.000
1021.000	143.000
1022.000	152.000
1023.000	129.000
1024.000	169.000
1025.000	149.000
1026.000	177.000
1027.000	167.000
1028.000	148.000
1029.000	148.000
1030.000	160.000
1031.000	147.000
1032.000	167.000
1033.000	140.000
1034.000	171.000
1035.000	147.000
1036.000	163.000
1037.000	158.000
1038.000	143.000
1039.000	173.000
1040.000	161.000
1041.000	152.000
1042.000	149.000
1043.000	161.000
1044.000	146.000
1045.000	163.000
1046.000	164.000
1047.000	137.000
1048.000	183.000
1049.000	170.000
1050.000	172.000
1051.000	177.000
1052.000	150.000
1053.000	186.000
1054.000	178.000
1055.000	166.000
1056.000	160.000
1057.000	164.000
1058.000	196.000
1059.000	168.000
1060.000	173.000
1061.000	164.000
1062.000	179.000
1063.000	172.000
1064.000	174.000
1065.000	179.000
1066.000	176.000
1067.000	180.000
1068.000	150.000
1069.000	162.000
1070.000	170.000
1071.000	208.000
1072.000	163.000
1073.000	165.000
1074.000	164.000
1075.000	165.000
1076.000	172.000
1077.000	183.000
1078.000	173.000
1079.000	162.000
1080.000	159.000
1081.000	173.000
1082.000	177.000
1083.000	190.000
1084.000	169.000
1085.000	192.000
1086.000	205.000
1087.000	150.000
1088.000	186.000
1089.000	173.000
1090.000	182.000
1091.000	171.000
1092.000	170.000
1093.000	173.000
1094.000	189.000
1095.000	201.000
1096.000	209.000
1097.000	170.000
1098.000	182.000
1099.000	163.000
1100.000	208.000
1101.000	166.000
1102.000	197.000
1103.000	195.000
1104.000	213.000
1105.000	177.000
1106.000	184.000
1107.000	174.000
1108.000	182.000
1109.000	189.000
1110.000	175.000
1111.000	171.000
1112.000	191.000
1113.000	155.000
1114.000	169.000
1115.000	165.000
1116.000	183.000
1117.000	178.000
1118.000	194.000
1119.000	156.000
1120.000	167.000
1121.000	177.000
1122.000	176.000
1123.000	169.000
1124.000	190.000
1125.000	172.000
1126.000	208.000
1127.000	134.000
1128.000	160.000
1129.000	171.000
1130.000	204.000
1131.000	191.000
1132.000	201.000
1133.000	174.000
1134.000	172.000
1135.000	177.000
1136.000	166.000
1137.000	179.000
1138.000	180.000
1139.000	172.000
1140.000	192.000
1141.000	179.000
1142.000	160.000
1143.000	180.000
1144.000	190.000
1145.000	187.000
1146.000	161.000
1147.000	170.000
1148.000	169.000
1149.000	168.000
1150.000	184.000
1151.000	191.000
1152.000	187.000
1153.000	192.000
1154.000	186.000
1155.000	219.000
