Date:	23-Sep-20		Time:	10:27 PM		Version no:	0.00		Project name:	55		Sample name:	222		Section name:	section		Position	1222.745018	mm	E0	0.000000	keV	E1	1.000000	keV/channel	sample surface	7.259224	cm	Tube anode:	Mo		Tube voltage:	30	kV	Tube current:	30	mA	gain	15		std. database			resultfile	result		matrix element	11		sample thickness	1.000000		air passage	0.560000	cm	comments	in position		peaking_time	0.300000	m-sec	trigger_threshold	40.000000	V	mca_bin_width	2.000000	no:	number_mca_channels	2048.000000	no:	gap_time	2048.000000	m-sec	trigger_peaking_time	2048.000000	m-sec	GAINDAC	400		HIGHGAIN	400		TAURC	400		RCTAU	400		RCTAUFRAC	400		livetime	13.465662	seconds	runtime	15.000382	seconds	input_count_rate	44905.480347	cps	output_count_rate	40311.106744	cps	triggers	663255	seconds	events_in_run	589378	seconds	channel	content		1.000	0.000
2.000	0.000
3.000	0.000
4.000	0.000
5.000	0.000
6.000	0.000
7.000	0.000
8.000	0.000
9.000	0.000
10.000	0.000
11.000	0.000
12.000	0.000
13.000	0.000
14.000	0.000
15.000	0.000
16.000	0.000
17.000	0.000
18.000	0.000
19.000	0.000
20.000	0.000
21.000	0.000
22.000	0.000
23.000	0.000
24.000	0.000
25.000	0.000
26.000	0.000
27.000	0.000
28.000	0.000
29.000	0.000
30.000	0.000
31.000	0.000
32.000	0.000
33.000	0.000
34.000	0.000
35.000	0.000
36.000	0.000
37.000	0.000
38.000	0.000
39.000	0.000
40.000	0.000
41.000	0.000
42.000	1.000
43.000	1.000
44.000	0.000
45.000	0.000
46.000	0.000
47.000	0.000
48.000	0.000
49.000	0.000
50.000	1.000
51.000	2.000
52.000	3.000
53.000	2.000
54.000	2.000
55.000	3.000
56.000	5.000
57.000	7.000
58.000	17.000
59.000	20.000
60.000	14.000
61.000	29.000
62.000	22.000
63.000	25.000
64.000	21.000
65.000	27.000
66.000	28.000
67.000	21.000
68.000	23.000
69.000	31.000
70.000	24.000
71.000	18.000
72.000	19.000
73.000	23.000
74.000	31.000
75.000	23.000
76.000	19.000
77.000	25.000
78.000	17.000
79.000	16.000
80.000	24.000
81.000	22.000
82.000	29.000
83.000	20.000
84.000	28.000
85.000	24.000
86.000	28.000
87.000	11.000
88.000	22.000
89.000	27.000
90.000	27.000
91.000	19.000
92.000	20.000
93.000	25.000
94.000	19.000
95.000	15.000
96.000	15.000
97.000	20.000
98.000	18.000
99.000	23.000
100.000	15.000
101.000	21.000
102.000	18.000
103.000	18.000
104.000	19.000
105.000	17.000
106.000	27.000
107.000	24.000
108.000	8.000
109.000	20.000
110.000	22.000
111.000	15.000
112.000	23.000
113.000	27.000
114.000	14.000
115.000	19.000
116.000	16.000
117.000	15.000
118.000	24.000
119.000	24.000
120.000	16.000
121.000	18.000
122.000	21.000
123.000	17.000
124.000	17.000
125.000	11.000
126.000	17.000
127.000	15.000
128.000	17.000
129.000	16.000
130.000	15.000
131.000	17.000
132.000	19.000
133.000	11.000
134.000	18.000
135.000	19.000
136.000	17.000
137.000	17.000
138.000	10.000
139.000	19.000
140.000	16.000
141.000	21.000
142.000	34.000
143.000	17.000
144.000	33.000
145.000	23.000
146.000	21.000
147.000	25.000
148.000	16.000
149.000	27.000
150.000	16.000
151.000	18.000
152.000	23.000
153.000	21.000
154.000	16.000
155.000	17.000
156.000	14.000
157.000	16.000
158.000	17.000
159.000	18.000
160.000	18.000
161.000	11.000
162.000	18.000
163.000	22.000
164.000	29.000
165.000	29.000
166.000	36.000
167.000	45.000
168.000	63.000
169.000	77.000
170.000	60.000
171.000	75.000
172.000	63.000
173.000	71.000
174.000	39.000
175.000	51.000
176.000	27.000
177.000	35.000
178.000	36.000
179.000	26.000
180.000	33.000
181.000	31.000
182.000	36.000
183.000	38.000
184.000	62.000
185.000	67.000
186.000	95.000
187.000	99.000
188.000	138.000
189.000	159.000
190.000	173.000
191.000	197.000
192.000	173.000
193.000	136.000
194.000	141.000
195.000	107.000
196.000	86.000
197.000	68.000
198.000	53.000
199.000	27.000
200.000	22.000
201.000	18.000
202.000	12.000
203.000	19.000
204.000	13.000
205.000	15.000
206.000	12.000
207.000	12.000
208.000	14.000
209.000	9.000
210.000	11.000
211.000	11.000
212.000	8.000
213.000	16.000
214.000	18.000
215.000	18.000
216.000	24.000
217.000	26.000
218.000	32.000
219.000	27.000
220.000	30.000
221.000	39.000
222.000	29.000
223.000	37.000
224.000	38.000
225.000	44.000
226.000	29.000
227.000	26.000
228.000	33.000
229.000	25.000
230.000	25.000
231.000	19.000
232.000	15.000
233.000	9.000
234.000	7.000
235.000	12.000
236.000	10.000
237.000	11.000
238.000	12.000
239.000	11.000
240.000	8.000
241.000	7.000
242.000	9.000
243.000	8.000
244.000	10.000
245.000	13.000
246.000	9.000
247.000	18.000
248.000	21.000
249.000	23.000
250.000	55.000
251.000	54.000
252.000	76.000
253.000	96.000
254.000	114.000
255.000	149.000
256.000	133.000
257.000	135.000
258.000	137.000
259.000	110.000
260.000	98.000
261.000	79.000
262.000	77.000
263.000	59.000
264.000	45.000
265.000	28.000
266.000	22.000
267.000	20.000
268.000	17.000
269.000	20.000
270.000	21.000
271.000	18.000
272.000	20.000
273.000	16.000
274.000	28.000
275.000	25.000
276.000	27.000
277.000	25.000
278.000	30.000
279.000	22.000
280.000	21.000
281.000	32.000
282.000	38.000
283.000	39.000
284.000	42.000
285.000	56.000
286.000	51.000
287.000	72.000
288.000	61.000
289.000	80.000
290.000	75.000
291.000	74.000
292.000	71.000
293.000	58.000
294.000	54.000
295.000	46.000
296.000	48.000
297.000	31.000
298.000	23.000
299.000	24.000
300.000	20.000
301.000	26.000
302.000	20.000
303.000	21.000
304.000	18.000
305.000	18.000
306.000	17.000
307.000	15.000
308.000	22.000
309.000	25.000
310.000	31.000
311.000	36.000
312.000	36.000
313.000	27.000
314.000	43.000
315.000	82.000
316.000	85.000
317.000	114.000
318.000	154.000
319.000	160.000
320.000	234.000
321.000	292.000
322.000	351.000
323.000	388.000
324.000	395.000
325.000	440.000
326.000	437.000
327.000	335.000
328.000	332.000
329.000	228.000
330.000	201.000
331.000	136.000
332.000	144.000
333.000	96.000
334.000	65.000
335.000	45.000
336.000	37.000
337.000	29.000
338.000	32.000
339.000	28.000
340.000	30.000
341.000	44.000
342.000	63.000
343.000	60.000
344.000	88.000
345.000	112.000
346.000	160.000
347.000	256.000
348.000	391.000
349.000	568.000
350.000	877.000
351.000	1398.000
352.000	2058.000
353.000	3004.000
354.000	4170.000
355.000	5910.000
356.000	7619.000
357.000	9491.000
358.000	11617.000
359.000	12873.000
360.000	14390.000
361.000	14900.000
362.000	14853.000
363.000	14199.000
364.000	12404.000
365.000	11103.000
366.000	9001.000
367.000	6954.000
368.000	5398.000
369.000	3918.000
370.000	2610.000
371.000	1836.000
372.000	1101.000
373.000	725.000
374.000	418.000
375.000	254.000
376.000	189.000
377.000	142.000
378.000	94.000
379.000	127.000
380.000	186.000
381.000	194.000
382.000	265.000
383.000	389.000
384.000	505.000
385.000	627.000
386.000	863.000
387.000	1150.000
388.000	1380.000
389.000	1562.000
390.000	1938.000
391.000	2076.000
392.000	2225.000
393.000	2199.000
394.000	2171.000
395.000	2005.000
396.000	1834.000
397.000	1505.000
398.000	1179.000
399.000	978.000
400.000	734.000
401.000	515.000
402.000	391.000
403.000	251.000
404.000	189.000
405.000	98.000
406.000	70.000
407.000	44.000
408.000	27.000
409.000	20.000
410.000	10.000
411.000	9.000
412.000	5.000
413.000	5.000
414.000	12.000
415.000	7.000
416.000	6.000
417.000	6.000
418.000	6.000
419.000	13.000
420.000	3.000
421.000	9.000
422.000	5.000
423.000	13.000
424.000	9.000
425.000	10.000
426.000	8.000
427.000	11.000
428.000	17.000
429.000	28.000
430.000	24.000
431.000	54.000
432.000	63.000
433.000	73.000
434.000	95.000
435.000	125.000
436.000	175.000
437.000	180.000
438.000	247.000
439.000	202.000
440.000	242.000
441.000	242.000
442.000	230.000
443.000	243.000
444.000	211.000
445.000	177.000
446.000	181.000
447.000	146.000
448.000	106.000
449.000	87.000
450.000	84.000
451.000	48.000
452.000	44.000
453.000	57.000
454.000	32.000
455.000	43.000
456.000	34.000
457.000	33.000
458.000	28.000
459.000	37.000
460.000	32.000
461.000	29.000
462.000	23.000
463.000	20.000
464.000	11.000
465.000	19.000
466.000	21.000
467.000	18.000
468.000	28.000
469.000	24.000
470.000	26.000
471.000	34.000
472.000	38.000
473.000	34.000
474.000	44.000
475.000	45.000
476.000	48.000
477.000	40.000
478.000	69.000
479.000	46.000
480.000	65.000
481.000	67.000
482.000	60.000
483.000	54.000
484.000	75.000
485.000	64.000
486.000	48.000
487.000	44.000
488.000	44.000
489.000	35.000
490.000	38.000
491.000	23.000
492.000	16.000
493.000	22.000
494.000	19.000
495.000	25.000
496.000	19.000
497.000	17.000
498.000	18.000
499.000	18.000
500.000	12.000
501.000	23.000
502.000	19.000
503.000	17.000
504.000	32.000
505.000	17.000
506.000	27.000
507.000	31.000
508.000	26.000
509.000	21.000
510.000	23.000
511.000	21.000
512.000	24.000
513.000	23.000
514.000	19.000
515.000	20.000
516.000	34.000
517.000	29.000
518.000	34.000
519.000	36.000
520.000	41.000
521.000	32.000
522.000	36.000
523.000	38.000
524.000	35.000
525.000	40.000
526.000	45.000
527.000	52.000
528.000	48.000
529.000	54.000
530.000	56.000
531.000	52.000
532.000	51.000
533.000	40.000
534.000	45.000
535.000	41.000
536.000	37.000
537.000	23.000
538.000	30.000
539.000	32.000
540.000	30.000
541.000	27.000
542.000	20.000
543.000	27.000
544.000	20.000
545.000	27.000
546.000	25.000
547.000	28.000
548.000	16.000
549.000	20.000
550.000	26.000
551.000	26.000
552.000	21.000
553.000	39.000
554.000	30.000
555.000	33.000
556.000	27.000
557.000	29.000
558.000	27.000
559.000	36.000
560.000	33.000
561.000	30.000
562.000	30.000
563.000	46.000
564.000	52.000
565.000	54.000
566.000	68.000
567.000	60.000
568.000	89.000
569.000	93.000
570.000	118.000
571.000	149.000
572.000	162.000
573.000	178.000
574.000	184.000
575.000	174.000
576.000	201.000
577.000	202.000
578.000	176.000
579.000	188.000
580.000	179.000
581.000	142.000
582.000	126.000
583.000	130.000
584.000	92.000
585.000	68.000
586.000	68.000
587.000	73.000
588.000	52.000
589.000	42.000
590.000	35.000
591.000	32.000
592.000	38.000
593.000	33.000
594.000	36.000
595.000	35.000
596.000	40.000
597.000	31.000
598.000	35.000
599.000	36.000
600.000	39.000
601.000	37.000
602.000	39.000
603.000	56.000
604.000	67.000
605.000	65.000
606.000	74.000
607.000	100.000
608.000	140.000
609.000	178.000
610.000	268.000
611.000	351.000
612.000	508.000
613.000	711.000
614.000	1052.000
615.000	1404.000
616.000	1782.000
617.000	2248.000
618.000	2890.000
619.000	3628.000
620.000	4191.000
621.000	4818.000
622.000	5497.000
623.000	5894.000
624.000	6227.000
625.000	6349.000
626.000	6336.000
627.000	6026.000
628.000	5810.000
629.000	5248.000
630.000	4681.000
631.000	3891.000
632.000	3203.000
633.000	2692.000
634.000	2032.000
635.000	1604.000
636.000	1245.000
637.000	808.000
638.000	701.000
639.000	450.000
640.000	355.000
641.000	225.000
642.000	169.000
643.000	126.000
644.000	119.000
645.000	74.000
646.000	70.000
647.000	65.000
648.000	62.000
649.000	73.000
650.000	56.000
651.000	56.000
652.000	59.000
653.000	64.000
654.000	52.000
655.000	58.000
656.000	63.000
657.000	61.000
658.000	48.000
659.000	58.000
660.000	74.000
661.000	65.000
662.000	57.000
663.000	57.000
664.000	57.000
665.000	83.000
666.000	71.000
667.000	74.000
668.000	70.000
669.000	73.000
670.000	78.000
671.000	124.000
672.000	121.000
673.000	113.000
674.000	151.000
675.000	144.000
676.000	199.000
677.000	221.000
678.000	303.000
679.000	372.000
680.000	402.000
681.000	463.000
682.000	595.000
683.000	704.000
684.000	726.000
685.000	852.000
686.000	1006.000
687.000	1036.000
688.000	1115.000
689.000	1022.000
690.000	1050.000
691.000	1013.000
692.000	932.000
693.000	916.000
694.000	777.000
695.000	663.000
696.000	625.000
697.000	508.000
698.000	378.000
699.000	358.000
700.000	259.000
701.000	219.000
702.000	168.000
703.000	129.000
704.000	107.000
705.000	87.000
706.000	72.000
707.000	60.000
708.000	67.000
709.000	72.000
710.000	51.000
711.000	61.000
712.000	56.000
713.000	64.000
714.000	69.000
715.000	64.000
716.000	75.000
717.000	90.000
718.000	75.000
719.000	86.000
720.000	61.000
721.000	84.000
722.000	78.000
723.000	79.000
724.000	81.000
725.000	77.000
726.000	86.000
727.000	101.000
728.000	107.000
729.000	95.000
730.000	104.000
731.000	75.000
732.000	89.000
733.000	97.000
734.000	74.000
735.000	81.000
736.000	89.000
737.000	73.000
738.000	75.000
739.000	81.000
740.000	80.000
741.000	76.000
742.000	77.000
743.000	79.000
744.000	63.000
745.000	68.000
746.000	70.000
747.000	70.000
748.000	66.000
749.000	83.000
750.000	64.000
751.000	62.000
752.000	77.000
753.000	68.000
754.000	62.000
755.000	69.000
756.000	58.000
757.000	66.000
758.000	71.000
759.000	74.000
760.000	59.000
761.000	79.000
762.000	73.000
763.000	69.000
764.000	64.000
765.000	81.000
766.000	85.000
767.000	85.000
768.000	59.000
769.000	76.000
770.000	75.000
771.000	76.000
772.000	81.000
773.000	96.000
774.000	78.000
775.000	89.000
776.000	89.000
777.000	73.000
778.000	109.000
779.000	95.000
780.000	108.000
781.000	113.000
782.000	122.000
783.000	118.000
784.000	115.000
785.000	138.000
786.000	125.000
787.000	123.000
788.000	133.000
789.000	156.000
790.000	158.000
791.000	135.000
792.000	147.000
793.000	147.000
794.000	127.000
795.000	156.000
796.000	132.000
797.000	156.000
798.000	134.000
799.000	160.000
800.000	161.000
801.000	159.000
802.000	131.000
803.000	166.000
804.000	170.000
805.000	162.000
806.000	144.000
807.000	193.000
808.000	187.000
809.000	167.000
810.000	206.000
811.000	190.000
812.000	227.000
813.000	216.000
814.000	218.000
815.000	262.000
816.000	318.000
817.000	293.000
818.000	283.000
819.000	299.000
820.000	303.000
821.000	283.000
822.000	307.000
823.000	296.000
824.000	241.000
825.000	230.000
826.000	210.000
827.000	208.000
828.000	193.000
829.000	166.000
830.000	136.000
831.000	164.000
832.000	134.000
833.000	136.000
834.000	111.000
835.000	135.000
836.000	120.000
837.000	154.000
838.000	122.000
839.000	133.000
840.000	107.000
841.000	104.000
842.000	128.000
843.000	121.000
844.000	138.000
845.000	138.000
846.000	134.000
847.000	108.000
848.000	134.000
849.000	112.000
850.000	129.000
851.000	117.000
852.000	101.000
853.000	117.000
854.000	123.000
855.000	141.000
856.000	119.000
857.000	121.000
858.000	125.000
859.000	113.000
860.000	100.000
861.000	93.000
862.000	111.000
863.000	115.000
864.000	109.000
865.000	120.000
866.000	121.000
867.000	106.000
868.000	130.000
869.000	120.000
870.000	100.000
871.000	115.000
872.000	123.000
873.000	131.000
874.000	121.000
875.000	131.000
876.000	117.000
877.000	121.000
878.000	120.000
879.000	116.000
880.000	127.000
881.000	126.000
882.000	120.000
883.000	124.000
884.000	118.000
885.000	102.000
886.000	132.000
887.000	87.000
888.000	113.000
889.000	123.000
890.000	115.000
891.000	157.000
892.000	132.000
893.000	138.000
894.000	126.000
895.000	137.000
896.000	119.000
897.000	128.000
898.000	129.000
899.000	156.000
900.000	136.000
901.000	144.000
902.000	165.000
903.000	165.000
904.000	160.000
905.000	161.000
906.000	145.000
907.000	152.000
908.000	150.000
909.000	172.000
910.000	158.000
911.000	172.000
912.000	150.000
913.000	174.000
914.000	164.000
915.000	170.000
916.000	147.000
917.000	194.000
918.000	166.000
919.000	179.000
920.000	169.000
921.000	198.000
922.000	165.000
923.000	185.000
924.000	168.000
925.000	186.000
926.000	187.000
927.000	165.000
928.000	191.000
929.000	212.000
930.000	192.000
931.000	209.000
932.000	195.000
933.000	204.000
934.000	235.000
935.000	245.000
936.000	221.000
937.000	241.000
938.000	211.000
939.000	246.000
940.000	240.000
941.000	253.000
942.000	256.000
943.000	258.000
944.000	245.000
945.000	263.000
946.000	256.000
947.000	237.000
948.000	226.000
949.000	248.000
950.000	213.000
951.000	225.000
952.000	194.000
953.000	212.000
954.000	182.000
955.000	186.000
956.000	171.000
957.000	195.000
958.000	185.000
959.000	200.000
960.000	163.000
961.000	174.000
962.000	169.000
963.000	195.000
964.000	186.000
965.000	171.000
966.000	153.000
967.000	177.000
968.000	181.000
969.000	169.000
970.000	164.000
971.000	190.000
972.000	164.000
973.000	180.000
974.000	185.000
975.000	156.000
976.000	175.000
977.000	167.000
978.000	152.000
979.000	166.000
980.000	154.000
981.000	159.000
982.000	140.000
983.000	156.000
984.000	167.000
985.000	150.000
986.000	146.000
987.000	148.000
988.000	151.000
989.000	142.000
990.000	144.000
991.000	121.000
992.000	153.000
993.000	133.000
994.000	134.000
995.000	127.000
996.000	154.000
997.000	119.000
998.000	152.000
999.000	132.000
1000.000	134.000
1001.000	148.000
1002.000	141.000
1003.000	111.000
1004.000	118.000
1005.000	118.000
1006.000	140.000
1007.000	140.000
1008.000	134.000
1009.000	150.000
1010.000	126.000
1011.000	135.000
1012.000	121.000
1013.000	150.000
1014.000	132.000
1015.000	137.000
1016.000	111.000
1017.000	130.000
1018.000	141.000
1019.000	163.000
1020.000	143.000
1021.000	122.000
1022.000	140.000
1023.000	141.000
1024.000	142.000
1025.000	145.000
1026.000	158.000
1027.000	159.000
1028.000	116.000
1029.000	145.000
1030.000	148.000
1031.000	149.000
1032.000	141.000
1033.000	143.000
1034.000	129.000
1035.000	132.000
1036.000	149.000
1037.000	144.000
1038.000	135.000
1039.000	136.000
1040.000	149.000
1041.000	157.000
1042.000	141.000
1043.000	145.000
1044.000	163.000
1045.000	166.000
1046.000	157.000
1047.000	162.000
1048.000	151.000
1049.000	149.000
1050.000	154.000
1051.000	168.000
1052.000	152.000
1053.000	144.000
1054.000	164.000
1055.000	158.000
1056.000	148.000
1057.000	145.000
1058.000	157.000
1059.000	149.000
1060.000	157.000
1061.000	148.000
1062.000	148.000
1063.000	154.000
1064.000	157.000
1065.000	168.000
1066.000	161.000
1067.000	154.000
1068.000	162.000
1069.000	154.000
1070.000	155.000
1071.000	142.000
1072.000	140.000
1073.000	174.000
1074.000	154.000
1075.000	154.000
1076.000	170.000
1077.000	161.000
1078.000	148.000
1079.000	146.000
1080.000	143.000
1081.000	162.000
1082.000	168.000
1083.000	163.000
1084.000	148.000
1085.000	152.000
1086.000	186.000
1087.000	162.000
1088.000	151.000
1089.000	176.000
1090.000	159.000
1091.000	160.000
1092.000	158.000
1093.000	180.000
1094.000	156.000
1095.000	167.000
1096.000	195.000
1097.000	161.000
1098.000	181.000
1099.000	192.000
1100.000	168.000
1101.000	174.000
1102.000	165.000
1103.000	159.000
1104.000	170.000
1105.000	159.000
1106.000	183.000
1107.000	166.000
1108.000	169.000
1109.000	168.000
1110.000	154.000
1111.000	164.000
1112.000	183.000
1113.000	152.000
1114.000	170.000
1115.000	156.000
1116.000	155.000
1117.000	163.000
1118.000	129.000
1119.000	148.000
1120.000	151.000
1121.000	161.000
1122.000	150.000
1123.000	146.000
1124.000	158.000
1125.000	158.000
1126.000	149.000
1127.000	147.000
1128.000	194.000
1129.000	159.000
1130.000	150.000
1131.000	136.000
1132.000	153.000
1133.000	169.000
1134.000	189.000
1135.000	165.000
1136.000	159.000
1137.000	140.000
1138.000	157.000
1139.000	162.000
1140.000	158.000
1141.000	141.000
1142.000	149.000
1143.000	148.000
1144.000	165.000
1145.000	165.000
1146.000	168.000
1147.000	172.000
1148.000	138.000
1149.000	175.000
1150.000	160.000
1151.000	173.000
1152.000	180.000
1153.000	183.000
1154.000	173.000
1155.000	194.000
1156.000	185.000
1157.000	162.000
