Date:	23-Sep-20		Time:	10:36 PM		Version no:	0.00		Project name:	55		Sample name:	222		Section name:	section		Position	1254.745018	mm	E0	0.000000	keV	E1	1.000000	keV/channel	sample surface	7.395877	cm	Tube anode:	Mo		Tube voltage:	30	kV	Tube current:	30	mA	gain	15		std. database			resultfile	result		matrix element	11		sample thickness	1.000000		air passage	0.560000	cm	comments	in position		peaking_time	0.300000	m-sec	trigger_threshold	40.000000	V	mca_bin_width	2.000000	no:	number_mca_channels	2048.000000	no:	gap_time	2048.000000	m-sec	trigger_peaking_time	2048.000000	m-sec	GAINDAC	400		HIGHGAIN	400		TAURC	400		RCTAU	400		RCTAUFRAC	400		livetime	13.458050	seconds	runtime	15.000339	seconds	input_count_rate	46045.748945	cps	output_count_rate	41311.466361	cps	triggers	679973	seconds	events_in_run	604499	seconds	channel	content		1.000	0.000
2.000	0.000
3.000	0.000
4.000	0.000
5.000	0.000
6.000	0.000
7.000	0.000
8.000	0.000
9.000	0.000
10.000	0.000
11.000	0.000
12.000	0.000
13.000	0.000
14.000	0.000
15.000	0.000
16.000	0.000
17.000	0.000
18.000	0.000
19.000	0.000
20.000	0.000
21.000	0.000
22.000	0.000
23.000	0.000
24.000	0.000
25.000	0.000
26.000	0.000
27.000	0.000
28.000	0.000
29.000	0.000
30.000	0.000
31.000	1.000
32.000	0.000
33.000	0.000
34.000	0.000
35.000	1.000
36.000	0.000
37.000	0.000
38.000	1.000
39.000	0.000
40.000	2.000
41.000	1.000
42.000	1.000
43.000	0.000
44.000	0.000
45.000	0.000
46.000	1.000
47.000	0.000
48.000	1.000
49.000	2.000
50.000	2.000
51.000	2.000
52.000	3.000
53.000	4.000
54.000	6.000
55.000	1.000
56.000	7.000
57.000	9.000
58.000	17.000
59.000	17.000
60.000	26.000
61.000	26.000
62.000	21.000
63.000	34.000
64.000	37.000
65.000	22.000
66.000	30.000
67.000	32.000
68.000	30.000
69.000	23.000
70.000	22.000
71.000	29.000
72.000	25.000
73.000	22.000
74.000	26.000
75.000	21.000
76.000	27.000
77.000	23.000
78.000	21.000
79.000	24.000
80.000	18.000
81.000	17.000
82.000	19.000
83.000	29.000
84.000	24.000
85.000	28.000
86.000	23.000
87.000	24.000
88.000	20.000
89.000	18.000
90.000	21.000
91.000	18.000
92.000	18.000
93.000	19.000
94.000	16.000
95.000	27.000
96.000	20.000
97.000	25.000
98.000	19.000
99.000	12.000
100.000	18.000
101.000	24.000
102.000	22.000
103.000	20.000
104.000	11.000
105.000	19.000
106.000	23.000
107.000	23.000
108.000	14.000
109.000	15.000
110.000	15.000
111.000	15.000
112.000	27.000
113.000	18.000
114.000	23.000
115.000	14.000
116.000	12.000
117.000	13.000
118.000	26.000
119.000	20.000
120.000	32.000
121.000	13.000
122.000	18.000
123.000	15.000
124.000	18.000
125.000	21.000
126.000	21.000
127.000	15.000
128.000	15.000
129.000	10.000
130.000	12.000
131.000	12.000
132.000	16.000
133.000	14.000
134.000	11.000
135.000	12.000
136.000	21.000
137.000	17.000
138.000	15.000
139.000	21.000
140.000	15.000
141.000	20.000
142.000	24.000
143.000	21.000
144.000	23.000
145.000	32.000
146.000	30.000
147.000	26.000
148.000	19.000
149.000	23.000
150.000	21.000
151.000	23.000
152.000	26.000
153.000	20.000
154.000	17.000
155.000	21.000
156.000	13.000
157.000	13.000
158.000	17.000
159.000	12.000
160.000	9.000
161.000	15.000
162.000	15.000
163.000	19.000
164.000	17.000
165.000	33.000
166.000	48.000
167.000	39.000
168.000	56.000
169.000	92.000
170.000	67.000
171.000	76.000
172.000	72.000
173.000	56.000
174.000	57.000
175.000	37.000
176.000	34.000
177.000	32.000
178.000	31.000
179.000	30.000
180.000	28.000
181.000	37.000
182.000	32.000
183.000	47.000
184.000	57.000
185.000	79.000
186.000	107.000
187.000	134.000
188.000	163.000
189.000	196.000
190.000	213.000
191.000	204.000
192.000	212.000
193.000	169.000
194.000	159.000
195.000	124.000
196.000	92.000
197.000	74.000
198.000	61.000
199.000	32.000
200.000	19.000
201.000	26.000
202.000	15.000
203.000	17.000
204.000	8.000
205.000	17.000
206.000	23.000
207.000	10.000
208.000	19.000
209.000	22.000
210.000	15.000
211.000	18.000
212.000	23.000
213.000	21.000
214.000	19.000
215.000	22.000
216.000	25.000
217.000	23.000
218.000	28.000
219.000	33.000
220.000	48.000
221.000	33.000
222.000	41.000
223.000	36.000
224.000	41.000
225.000	47.000
226.000	47.000
227.000	33.000
228.000	20.000
229.000	25.000
230.000	22.000
231.000	12.000
232.000	15.000
233.000	9.000
234.000	15.000
235.000	12.000
236.000	14.000
237.000	13.000
238.000	9.000
239.000	7.000
240.000	11.000
241.000	9.000
242.000	12.000
243.000	18.000
244.000	11.000
245.000	13.000
246.000	8.000
247.000	15.000
248.000	27.000
249.000	36.000
250.000	47.000
251.000	59.000
252.000	79.000
253.000	97.000
254.000	111.000
255.000	121.000
256.000	119.000
257.000	133.000
258.000	135.000
259.000	117.000
260.000	116.000
261.000	80.000
262.000	69.000
263.000	63.000
264.000	48.000
265.000	31.000
266.000	25.000
267.000	19.000
268.000	15.000
269.000	22.000
270.000	23.000
271.000	24.000
272.000	21.000
273.000	18.000
274.000	25.000
275.000	22.000
276.000	26.000
277.000	39.000
278.000	24.000
279.000	29.000
280.000	18.000
281.000	33.000
282.000	30.000
283.000	36.000
284.000	45.000
285.000	61.000
286.000	48.000
287.000	72.000
288.000	85.000
289.000	88.000
290.000	86.000
291.000	78.000
292.000	73.000
293.000	71.000
294.000	62.000
295.000	60.000
296.000	43.000
297.000	26.000
298.000	16.000
299.000	32.000
300.000	23.000
301.000	26.000
302.000	28.000
303.000	27.000
304.000	29.000
305.000	12.000
306.000	24.000
307.000	29.000
308.000	29.000
309.000	23.000
310.000	25.000
311.000	37.000
312.000	41.000
313.000	37.000
314.000	51.000
315.000	70.000
316.000	99.000
317.000	115.000
318.000	142.000
319.000	201.000
320.000	240.000
321.000	259.000
322.000	271.000
323.000	323.000
324.000	351.000
325.000	382.000
326.000	370.000
327.000	326.000
328.000	290.000
329.000	241.000
330.000	181.000
331.000	137.000
332.000	118.000
333.000	73.000
334.000	66.000
335.000	35.000
336.000	35.000
337.000	34.000
338.000	38.000
339.000	38.000
340.000	50.000
341.000	49.000
342.000	57.000
343.000	79.000
344.000	111.000
345.000	129.000
346.000	190.000
347.000	275.000
348.000	421.000
349.000	672.000
350.000	1018.000
351.000	1577.000
352.000	2427.000
353.000	3430.000
354.000	4955.000
355.000	6817.000
356.000	9240.000
357.000	11253.000
358.000	13441.000
359.000	15262.000
360.000	16763.000
361.000	17441.000
362.000	17379.000
363.000	16311.000
364.000	14747.000
365.000	12742.000
366.000	10634.000
367.000	8036.000
368.000	6253.000
369.000	4491.000
370.000	3043.000
371.000	2027.000
372.000	1217.000
373.000	860.000
374.000	486.000
375.000	315.000
376.000	214.000
377.000	138.000
378.000	165.000
379.000	142.000
380.000	167.000
381.000	224.000
382.000	330.000
383.000	439.000
384.000	623.000
385.000	802.000
386.000	1069.000
387.000	1311.000
388.000	1561.000
389.000	2004.000
390.000	2242.000
391.000	2467.000
392.000	2610.000
393.000	2596.000
394.000	2582.000
395.000	2396.000
396.000	2095.000
397.000	1799.000
398.000	1509.000
399.000	1137.000
400.000	819.000
401.000	641.000
402.000	435.000
403.000	273.000
404.000	183.000
405.000	126.000
406.000	68.000
407.000	48.000
408.000	34.000
409.000	16.000
410.000	19.000
411.000	7.000
412.000	3.000
413.000	9.000
414.000	2.000
415.000	8.000
416.000	8.000
417.000	10.000
418.000	9.000
419.000	7.000
420.000	10.000
421.000	7.000
422.000	9.000
423.000	8.000
424.000	6.000
425.000	22.000
426.000	9.000
427.000	12.000
428.000	11.000
429.000	23.000
430.000	36.000
431.000	38.000
432.000	64.000
433.000	52.000
434.000	83.000
435.000	113.000
436.000	115.000
437.000	165.000
438.000	196.000
439.000	192.000
440.000	210.000
441.000	203.000
442.000	203.000
443.000	194.000
444.000	165.000
445.000	159.000
446.000	149.000
447.000	103.000
448.000	86.000
449.000	72.000
450.000	55.000
451.000	44.000
452.000	47.000
453.000	39.000
454.000	36.000
455.000	33.000
456.000	26.000
457.000	31.000
458.000	30.000
459.000	27.000
460.000	26.000
461.000	24.000
462.000	14.000
463.000	18.000
464.000	21.000
465.000	20.000
466.000	11.000
467.000	21.000
468.000	26.000
469.000	17.000
470.000	20.000
471.000	28.000
472.000	23.000
473.000	27.000
474.000	29.000
475.000	36.000
476.000	40.000
477.000	53.000
478.000	44.000
479.000	50.000
480.000	45.000
481.000	58.000
482.000	55.000
483.000	62.000
484.000	53.000
485.000	53.000
486.000	42.000
487.000	38.000
488.000	38.000
489.000	25.000
490.000	32.000
491.000	19.000
492.000	18.000
493.000	21.000
494.000	16.000
495.000	23.000
496.000	11.000
497.000	19.000
498.000	17.000
499.000	15.000
500.000	18.000
501.000	14.000
502.000	16.000
503.000	24.000
504.000	16.000
505.000	24.000
506.000	22.000
507.000	12.000
508.000	20.000
509.000	22.000
510.000	33.000
511.000	18.000
512.000	15.000
513.000	19.000
514.000	34.000
515.000	16.000
516.000	26.000
517.000	21.000
518.000	33.000
519.000	26.000
520.000	38.000
521.000	27.000
522.000	30.000
523.000	37.000
524.000	37.000
525.000	42.000
526.000	38.000
527.000	54.000
528.000	43.000
529.000	48.000
530.000	46.000
531.000	41.000
532.000	50.000
533.000	38.000
534.000	42.000
535.000	32.000
536.000	39.000
537.000	24.000
538.000	23.000
539.000	25.000
540.000	23.000
541.000	22.000
542.000	20.000
543.000	22.000
544.000	16.000
545.000	24.000
546.000	19.000
547.000	27.000
548.000	22.000
549.000	22.000
550.000	27.000
551.000	28.000
552.000	25.000
553.000	33.000
554.000	34.000
555.000	25.000
556.000	28.000
557.000	24.000
558.000	35.000
559.000	31.000
560.000	29.000
561.000	27.000
562.000	32.000
563.000	34.000
564.000	37.000
565.000	48.000
566.000	57.000
567.000	42.000
568.000	69.000
569.000	67.000
570.000	97.000
571.000	83.000
572.000	119.000
573.000	110.000
574.000	130.000
575.000	139.000
576.000	132.000
577.000	125.000
578.000	108.000
579.000	100.000
580.000	113.000
581.000	118.000
582.000	85.000
583.000	79.000
584.000	55.000
585.000	57.000
586.000	58.000
587.000	45.000
588.000	45.000
589.000	34.000
590.000	27.000
591.000	33.000
592.000	34.000
593.000	31.000
594.000	28.000
595.000	29.000
596.000	35.000
597.000	33.000
598.000	41.000
599.000	44.000
600.000	44.000
601.000	38.000
602.000	36.000
603.000	57.000
604.000	43.000
605.000	49.000
606.000	64.000
607.000	82.000
608.000	114.000
609.000	152.000
610.000	205.000
611.000	286.000
612.000	422.000
613.000	621.000
614.000	841.000
615.000	1124.000
616.000	1357.000
617.000	1824.000
618.000	2316.000
619.000	2921.000
620.000	3401.000
621.000	3826.000
622.000	4314.000
623.000	4746.000
624.000	4982.000
625.000	5015.000
626.000	5085.000
627.000	4845.000
628.000	4566.000
629.000	4141.000
630.000	3587.000
631.000	3085.000
632.000	2706.000
633.000	2152.000
634.000	1721.000
635.000	1296.000
636.000	951.000
637.000	693.000
638.000	508.000
639.000	345.000
640.000	226.000
641.000	186.000
642.000	153.000
643.000	99.000
644.000	94.000
645.000	66.000
646.000	70.000
647.000	59.000
648.000	58.000
649.000	54.000
650.000	53.000
651.000	53.000
652.000	53.000
653.000	51.000
654.000	54.000
655.000	60.000
656.000	68.000
657.000	64.000
658.000	62.000
659.000	64.000
660.000	61.000
661.000	60.000
662.000	65.000
663.000	65.000
664.000	63.000
665.000	69.000
666.000	81.000
667.000	67.000
668.000	73.000
669.000	86.000
670.000	84.000
671.000	89.000
672.000	107.000
673.000	106.000
674.000	132.000
675.000	157.000
676.000	164.000
677.000	186.000
678.000	221.000
679.000	300.000
680.000	349.000
681.000	399.000
682.000	486.000
683.000	594.000
684.000	617.000
685.000	721.000
686.000	754.000
687.000	875.000
688.000	808.000
689.000	857.000
690.000	862.000
691.000	809.000
692.000	735.000
693.000	700.000
694.000	654.000
695.000	572.000
696.000	498.000
697.000	442.000
698.000	358.000
699.000	278.000
700.000	214.000
701.000	197.000
702.000	160.000
703.000	127.000
704.000	92.000
705.000	81.000
706.000	64.000
707.000	75.000
708.000	47.000
709.000	50.000
710.000	63.000
711.000	63.000
712.000	60.000
713.000	58.000
714.000	75.000
715.000	64.000
716.000	71.000
717.000	77.000
718.000	75.000
719.000	79.000
720.000	72.000
721.000	92.000
722.000	81.000
723.000	86.000
724.000	87.000
725.000	113.000
726.000	88.000
727.000	106.000
728.000	115.000
729.000	95.000
730.000	94.000
731.000	90.000
732.000	95.000
733.000	105.000
734.000	88.000
735.000	85.000
736.000	73.000
737.000	77.000
738.000	82.000
739.000	74.000
740.000	78.000
741.000	84.000
742.000	73.000
743.000	66.000
744.000	67.000
745.000	68.000
746.000	71.000
747.000	73.000
748.000	72.000
749.000	71.000
750.000	77.000
751.000	61.000
752.000	69.000
753.000	76.000
754.000	65.000
755.000	62.000
756.000	68.000
757.000	73.000
758.000	80.000
759.000	54.000
760.000	68.000
761.000	62.000
762.000	72.000
763.000	64.000
764.000	66.000
765.000	78.000
766.000	64.000
767.000	74.000
768.000	79.000
769.000	87.000
770.000	76.000
771.000	82.000
772.000	92.000
773.000	90.000
774.000	73.000
775.000	82.000
776.000	91.000
777.000	84.000
778.000	95.000
779.000	97.000
780.000	109.000
781.000	97.000
782.000	107.000
783.000	126.000
784.000	139.000
785.000	125.000
786.000	128.000
787.000	126.000
788.000	144.000
789.000	128.000
790.000	135.000
791.000	141.000
792.000	147.000
793.000	158.000
794.000	143.000
795.000	149.000
796.000	136.000
797.000	143.000
798.000	158.000
799.000	152.000
800.000	148.000
801.000	147.000
802.000	166.000
803.000	151.000
804.000	152.000
805.000	158.000
806.000	169.000
807.000	166.000
808.000	177.000
809.000	177.000
810.000	215.000
811.000	240.000
812.000	230.000
813.000	255.000
814.000	260.000
815.000	252.000
816.000	286.000
817.000	310.000
818.000	314.000
819.000	274.000
820.000	287.000
821.000	284.000
822.000	300.000
823.000	260.000
824.000	279.000
825.000	249.000
826.000	249.000
827.000	201.000
828.000	165.000
829.000	161.000
830.000	174.000
831.000	183.000
832.000	142.000
833.000	146.000
834.000	127.000
835.000	139.000
836.000	144.000
837.000	132.000
838.000	130.000
839.000	125.000
840.000	123.000
841.000	121.000
842.000	143.000
843.000	116.000
844.000	117.000
845.000	116.000
846.000	122.000
847.000	140.000
848.000	132.000
849.000	115.000
850.000	112.000
851.000	134.000
852.000	126.000
853.000	125.000
854.000	115.000
855.000	108.000
856.000	115.000
857.000	102.000
858.000	102.000
859.000	111.000
860.000	119.000
861.000	118.000
862.000	93.000
863.000	96.000
864.000	118.000
865.000	110.000
866.000	103.000
867.000	102.000
868.000	104.000
869.000	107.000
870.000	116.000
871.000	133.000
872.000	98.000
873.000	136.000
874.000	111.000
875.000	109.000
876.000	119.000
877.000	112.000
878.000	113.000
879.000	126.000
880.000	127.000
881.000	133.000
882.000	131.000
883.000	114.000
884.000	128.000
885.000	120.000
886.000	112.000
887.000	123.000
888.000	124.000
889.000	110.000
890.000	127.000
891.000	119.000
892.000	125.000
893.000	116.000
894.000	132.000
895.000	139.000
896.000	134.000
897.000	123.000
898.000	129.000
899.000	140.000
900.000	134.000
901.000	149.000
902.000	143.000
903.000	167.000
904.000	139.000
905.000	151.000
906.000	157.000
907.000	154.000
908.000	143.000
909.000	161.000
910.000	154.000
911.000	167.000
912.000	158.000
913.000	203.000
914.000	151.000
915.000	172.000
916.000	158.000
917.000	145.000
918.000	181.000
919.000	196.000
920.000	172.000
921.000	187.000
922.000	162.000
923.000	168.000
924.000	175.000
925.000	182.000
926.000	175.000
927.000	201.000
928.000	169.000
929.000	205.000
930.000	198.000
931.000	225.000
932.000	206.000
933.000	205.000
934.000	214.000
935.000	237.000
936.000	233.000
937.000	219.000
938.000	264.000
939.000	242.000
940.000	271.000
941.000	246.000
942.000	254.000
943.000	253.000
944.000	250.000
945.000	288.000
946.000	258.000
947.000	259.000
948.000	247.000
949.000	249.000
950.000	216.000
951.000	234.000
952.000	214.000
953.000	177.000
954.000	185.000
955.000	214.000
956.000	162.000
957.000	208.000
958.000	163.000
959.000	168.000
960.000	167.000
961.000	166.000
962.000	173.000
963.000	165.000
964.000	178.000
965.000	174.000
966.000	190.000
967.000	171.000
968.000	203.000
969.000	192.000
970.000	183.000
971.000	175.000
972.000	190.000
973.000	176.000
974.000	167.000
975.000	178.000
976.000	170.000
977.000	195.000
978.000	211.000
979.000	180.000
980.000	161.000
981.000	158.000
982.000	172.000
983.000	145.000
984.000	161.000
985.000	146.000
986.000	157.000
987.000	147.000
988.000	157.000
989.000	156.000
990.000	148.000
991.000	147.000
992.000	128.000
993.000	173.000
994.000	131.000
995.000	125.000
996.000	119.000
997.000	133.000
998.000	131.000
999.000	133.000
1000.000	139.000
1001.000	131.000
1002.000	145.000
1003.000	137.000
1004.000	152.000
1005.000	143.000
1006.000	128.000
1007.000	152.000
1008.000	139.000
1009.000	135.000
1010.000	143.000
1011.000	119.000
1012.000	148.000
1013.000	135.000
1014.000	128.000
1015.000	150.000
1016.000	131.000
1017.000	136.000
1018.000	135.000
1019.000	146.000
1020.000	160.000
1021.000	147.000
1022.000	145.000
1023.000	132.000
1024.000	156.000
1025.000	142.000
1026.000	137.000
1027.000	147.000
1028.000	131.000
1029.000	146.000
1030.000	136.000
1031.000	161.000
1032.000	142.000
1033.000	140.000
1034.000	143.000
1035.000	170.000
1036.000	143.000
1037.000	148.000
1038.000	156.000
1039.000	136.000
1040.000	135.000
1041.000	141.000
1042.000	156.000
1043.000	144.000
1044.000	152.000
1045.000	157.000
1046.000	153.000
1047.000	151.000
1048.000	152.000
1049.000	156.000
1050.000	153.000
1051.000	154.000
1052.000	155.000
1053.000	154.000
1054.000	137.000
1055.000	160.000
1056.000	160.000
1057.000	154.000
1058.000	153.000
1059.000	144.000
1060.000	141.000
1061.000	170.000
1062.000	183.000
1063.000	151.000
1064.000	146.000
1065.000	162.000
1066.000	162.000
1067.000	169.000
1068.000	166.000
1069.000	156.000
1070.000	167.000
1071.000	148.000
1072.000	151.000
1073.000	167.000
1074.000	175.000
1075.000	164.000
1076.000	167.000
1077.000	134.000
1078.000	169.000
1079.000	154.000
1080.000	136.000
1081.000	150.000
1082.000	152.000
1083.000	159.000
1084.000	158.000
1085.000	158.000
1086.000	156.000
1087.000	159.000
1088.000	173.000
1089.000	160.000
1090.000	167.000
1091.000	186.000
1092.000	143.000
1093.000	170.000
1094.000	161.000
1095.000	159.000
1096.000	144.000
1097.000	164.000
1098.000	178.000
1099.000	170.000
1100.000	175.000
1101.000	179.000
1102.000	147.000
1103.000	194.000
1104.000	144.000
1105.000	179.000
1106.000	177.000
1107.000	154.000
1108.000	175.000
1109.000	198.000
1110.000	154.000
1111.000	187.000
1112.000	149.000
1113.000	173.000
1114.000	154.000
1115.000	151.000
1116.000	149.000
1117.000	158.000
1118.000	157.000
1119.000	148.000
1120.000	149.000
1121.000	156.000
1122.000	159.000
1123.000	154.000
1124.000	179.000
1125.000	148.000
1126.000	173.000
1127.000	159.000
1128.000	145.000
1129.000	155.000
1130.000	178.000
1131.000	155.000
1132.000	159.000
1133.000	147.000
1134.000	186.000
1135.000	168.000
1136.000	166.000
1137.000	183.000
1138.000	177.000
1139.000	190.000
1140.000	147.000
1141.000	168.000
1142.000	173.000
1143.000	175.000
1144.000	151.000
1145.000	162.000
1146.000	193.000
1147.000	184.000
1148.000	157.000
1149.000	178.000
1150.000	184.000
1151.000	158.000
1152.000	167.000
1153.000	170.000
1154.000	170.000
1155.000	191.000
1156.000	160.000
1157.000	161.000
