Date:	23-Sep-20		Time:	10:36 PM		Version no:	0.00		Project name:	55		Sample name:	222		Section name:	section		Position	1256.745018	mm	E0	0.000000	keV	E1	1.000000	keV/channel	sample surface	7.408289	cm	Tube anode:	Mo		Tube voltage:	30	kV	Tube current:	30	mA	gain	15		std. database			resultfile	result		matrix element	11		sample thickness	1.000000		air passage	0.560000	cm	comments	in position		peaking_time	0.300000	m-sec	trigger_threshold	40.000000	V	mca_bin_width	2.000000	no:	number_mca_channels	2048.000000	no:	gap_time	2048.000000	m-sec	trigger_peaking_time	2048.000000	m-sec	GAINDAC	400		HIGHGAIN	400		TAURC	400		RCTAU	400		RCTAUFRAC	400		livetime	13.456700	seconds	runtime	15.000357	seconds	input_count_rate	44712.446542	cps	output_count_rate	40111.177350	cps	triggers	660434	seconds	events_in_run	586696	seconds	channel	content		1.000	0.000
2.000	0.000
3.000	0.000
4.000	0.000
5.000	0.000
6.000	0.000
7.000	0.000
8.000	0.000
9.000	0.000
10.000	0.000
11.000	0.000
12.000	0.000
13.000	0.000
14.000	0.000
15.000	0.000
16.000	0.000
17.000	0.000
18.000	0.000
19.000	0.000
20.000	0.000
21.000	0.000
22.000	0.000
23.000	0.000
24.000	0.000
25.000	0.000
26.000	0.000
27.000	0.000
28.000	0.000
29.000	0.000
30.000	0.000
31.000	0.000
32.000	0.000
33.000	0.000
34.000	0.000
35.000	0.000
36.000	0.000
37.000	0.000
38.000	1.000
39.000	0.000
40.000	1.000
41.000	1.000
42.000	0.000
43.000	0.000
44.000	0.000
45.000	0.000
46.000	1.000
47.000	0.000
48.000	2.000
49.000	0.000
50.000	1.000
51.000	1.000
52.000	3.000
53.000	3.000
54.000	4.000
55.000	7.000
56.000	6.000
57.000	12.000
58.000	14.000
59.000	22.000
60.000	29.000
61.000	29.000
62.000	21.000
63.000	29.000
64.000	35.000
65.000	21.000
66.000	27.000
67.000	28.000
68.000	28.000
69.000	21.000
70.000	20.000
71.000	26.000
72.000	34.000
73.000	23.000
74.000	21.000
75.000	28.000
76.000	29.000
77.000	24.000
78.000	18.000
79.000	32.000
80.000	27.000
81.000	27.000
82.000	23.000
83.000	31.000
84.000	31.000
85.000	17.000
86.000	29.000
87.000	29.000
88.000	18.000
89.000	18.000
90.000	24.000
91.000	25.000
92.000	30.000
93.000	18.000
94.000	14.000
95.000	18.000
96.000	21.000
97.000	27.000
98.000	23.000
99.000	15.000
100.000	24.000
101.000	21.000
102.000	16.000
103.000	21.000
104.000	17.000
105.000	21.000
106.000	17.000
107.000	14.000
108.000	23.000
109.000	15.000
110.000	13.000
111.000	15.000
112.000	22.000
113.000	12.000
114.000	14.000
115.000	18.000
116.000	21.000
117.000	11.000
118.000	14.000
119.000	14.000
120.000	10.000
121.000	18.000
122.000	16.000
123.000	19.000
124.000	17.000
125.000	18.000
126.000	18.000
127.000	20.000
128.000	11.000
129.000	10.000
130.000	10.000
131.000	16.000
132.000	14.000
133.000	11.000
134.000	15.000
135.000	11.000
136.000	23.000
137.000	17.000
138.000	15.000
139.000	27.000
140.000	10.000
141.000	23.000
142.000	23.000
143.000	21.000
144.000	17.000
145.000	20.000
146.000	25.000
147.000	26.000
148.000	27.000
149.000	16.000
150.000	28.000
151.000	16.000
152.000	12.000
153.000	12.000
154.000	19.000
155.000	25.000
156.000	18.000
157.000	3.000
158.000	21.000
159.000	19.000
160.000	15.000
161.000	16.000
162.000	18.000
163.000	20.000
164.000	26.000
165.000	27.000
166.000	25.000
167.000	49.000
168.000	56.000
169.000	73.000
170.000	64.000
171.000	88.000
172.000	77.000
173.000	76.000
174.000	49.000
175.000	49.000
176.000	40.000
177.000	24.000
178.000	32.000
179.000	29.000
180.000	33.000
181.000	33.000
182.000	34.000
183.000	37.000
184.000	48.000
185.000	59.000
186.000	102.000
187.000	124.000
188.000	133.000
189.000	154.000
190.000	202.000
191.000	190.000
192.000	194.000
193.000	164.000
194.000	123.000
195.000	120.000
196.000	91.000
197.000	58.000
198.000	37.000
199.000	28.000
200.000	28.000
201.000	23.000
202.000	17.000
203.000	18.000
204.000	17.000
205.000	19.000
206.000	14.000
207.000	14.000
208.000	15.000
209.000	13.000
210.000	18.000
211.000	18.000
212.000	16.000
213.000	17.000
214.000	12.000
215.000	15.000
216.000	23.000
217.000	25.000
218.000	25.000
219.000	37.000
220.000	29.000
221.000	35.000
222.000	40.000
223.000	44.000
224.000	34.000
225.000	38.000
226.000	24.000
227.000	31.000
228.000	33.000
229.000	22.000
230.000	17.000
231.000	22.000
232.000	14.000
233.000	10.000
234.000	19.000
235.000	18.000
236.000	8.000
237.000	25.000
238.000	11.000
239.000	12.000
240.000	14.000
241.000	11.000
242.000	17.000
243.000	7.000
244.000	14.000
245.000	14.000
246.000	21.000
247.000	18.000
248.000	18.000
249.000	31.000
250.000	38.000
251.000	70.000
252.000	58.000
253.000	95.000
254.000	118.000
255.000	138.000
256.000	134.000
257.000	139.000
258.000	136.000
259.000	113.000
260.000	112.000
261.000	103.000
262.000	64.000
263.000	62.000
264.000	52.000
265.000	41.000
266.000	22.000
267.000	16.000
268.000	26.000
269.000	17.000
270.000	22.000
271.000	20.000
272.000	24.000
273.000	20.000
274.000	30.000
275.000	25.000
276.000	37.000
277.000	33.000
278.000	24.000
279.000	26.000
280.000	24.000
281.000	24.000
282.000	33.000
283.000	46.000
284.000	32.000
285.000	50.000
286.000	69.000
287.000	60.000
288.000	64.000
289.000	81.000
290.000	77.000
291.000	82.000
292.000	69.000
293.000	81.000
294.000	45.000
295.000	41.000
296.000	42.000
297.000	42.000
298.000	25.000
299.000	14.000
300.000	20.000
301.000	22.000
302.000	24.000
303.000	19.000
304.000	14.000
305.000	19.000
306.000	30.000
307.000	20.000
308.000	14.000
309.000	39.000
310.000	28.000
311.000	29.000
312.000	43.000
313.000	47.000
314.000	46.000
315.000	81.000
316.000	99.000
317.000	108.000
318.000	147.000
319.000	189.000
320.000	212.000
321.000	311.000
322.000	332.000
323.000	376.000
324.000	388.000
325.000	380.000
326.000	351.000
327.000	310.000
328.000	261.000
329.000	211.000
330.000	203.000
331.000	155.000
332.000	90.000
333.000	84.000
334.000	55.000
335.000	45.000
336.000	40.000
337.000	28.000
338.000	27.000
339.000	26.000
340.000	37.000
341.000	47.000
342.000	52.000
343.000	65.000
344.000	90.000
345.000	124.000
346.000	150.000
347.000	245.000
348.000	395.000
349.000	581.000
350.000	920.000
351.000	1425.000
352.000	2129.000
353.000	3052.000
354.000	4416.000
355.000	6068.000
356.000	8023.000
357.000	9982.000
358.000	12035.000
359.000	13925.000
360.000	15020.000
361.000	15726.000
362.000	15620.000
363.000	14688.000
364.000	13220.000
365.000	11398.000
366.000	9391.000
367.000	7490.000
368.000	5607.000
369.000	3944.000
370.000	2785.000
371.000	1804.000
372.000	1084.000
373.000	695.000
374.000	426.000
375.000	288.000
376.000	183.000
377.000	147.000
378.000	126.000
379.000	116.000
380.000	172.000
381.000	223.000
382.000	258.000
383.000	385.000
384.000	549.000
385.000	717.000
386.000	905.000
387.000	1185.000
388.000	1477.000
389.000	1694.000
390.000	1947.000
391.000	2296.000
392.000	2329.000
393.000	2368.000
394.000	2232.000
395.000	2190.000
396.000	1857.000
397.000	1657.000
398.000	1328.000
399.000	1085.000
400.000	805.000
401.000	592.000
402.000	374.000
403.000	287.000
404.000	160.000
405.000	117.000
406.000	64.000
407.000	38.000
408.000	22.000
409.000	21.000
410.000	9.000
411.000	7.000
412.000	11.000
413.000	11.000
414.000	8.000
415.000	9.000
416.000	6.000
417.000	11.000
418.000	4.000
419.000	3.000
420.000	8.000
421.000	12.000
422.000	13.000
423.000	8.000
424.000	6.000
425.000	10.000
426.000	14.000
427.000	14.000
428.000	16.000
429.000	28.000
430.000	41.000
431.000	50.000
432.000	58.000
433.000	80.000
434.000	76.000
435.000	106.000
436.000	144.000
437.000	181.000
438.000	205.000
439.000	208.000
440.000	204.000
441.000	209.000
442.000	202.000
443.000	195.000
444.000	173.000
445.000	160.000
446.000	141.000
447.000	115.000
448.000	98.000
449.000	73.000
450.000	62.000
451.000	50.000
452.000	54.000
453.000	42.000
454.000	31.000
455.000	31.000
456.000	38.000
457.000	26.000
458.000	36.000
459.000	23.000
460.000	24.000
461.000	27.000
462.000	19.000
463.000	12.000
464.000	18.000
465.000	17.000
466.000	18.000
467.000	19.000
468.000	18.000
469.000	33.000
470.000	21.000
471.000	22.000
472.000	28.000
473.000	39.000
474.000	33.000
475.000	35.000
476.000	41.000
477.000	49.000
478.000	53.000
479.000	59.000
480.000	47.000
481.000	66.000
482.000	48.000
483.000	49.000
484.000	45.000
485.000	52.000
486.000	55.000
487.000	43.000
488.000	31.000
489.000	25.000
490.000	19.000
491.000	27.000
492.000	28.000
493.000	20.000
494.000	30.000
495.000	22.000
496.000	18.000
497.000	13.000
498.000	18.000
499.000	21.000
500.000	21.000
501.000	20.000
502.000	26.000
503.000	20.000
504.000	22.000
505.000	22.000
506.000	29.000
507.000	16.000
508.000	19.000
509.000	24.000
510.000	19.000
511.000	30.000
512.000	29.000
513.000	30.000
514.000	26.000
515.000	22.000
516.000	35.000
517.000	30.000
518.000	33.000
519.000	31.000
520.000	22.000
521.000	28.000
522.000	37.000
523.000	35.000
524.000	39.000
525.000	28.000
526.000	53.000
527.000	42.000
528.000	49.000
529.000	46.000
530.000	52.000
531.000	43.000
532.000	40.000
533.000	31.000
534.000	43.000
535.000	30.000
536.000	43.000
537.000	28.000
538.000	29.000
539.000	20.000
540.000	30.000
541.000	20.000
542.000	31.000
543.000	18.000
544.000	22.000
545.000	21.000
546.000	13.000
547.000	28.000
548.000	27.000
549.000	37.000
550.000	22.000
551.000	23.000
552.000	31.000
553.000	30.000
554.000	28.000
555.000	23.000
556.000	24.000
557.000	38.000
558.000	30.000
559.000	30.000
560.000	22.000
561.000	24.000
562.000	38.000
563.000	40.000
564.000	52.000
565.000	51.000
566.000	60.000
567.000	69.000
568.000	76.000
569.000	97.000
570.000	102.000
571.000	114.000
572.000	101.000
573.000	125.000
574.000	122.000
575.000	148.000
576.000	153.000
577.000	136.000
578.000	144.000
579.000	122.000
580.000	106.000
581.000	99.000
582.000	100.000
583.000	75.000
584.000	71.000
585.000	57.000
586.000	59.000
587.000	46.000
588.000	38.000
589.000	36.000
590.000	45.000
591.000	37.000
592.000	41.000
593.000	26.000
594.000	28.000
595.000	40.000
596.000	30.000
597.000	49.000
598.000	36.000
599.000	29.000
600.000	44.000
601.000	44.000
602.000	44.000
603.000	41.000
604.000	62.000
605.000	59.000
606.000	75.000
607.000	90.000
608.000	120.000
609.000	165.000
610.000	213.000
611.000	318.000
612.000	459.000
613.000	655.000
614.000	893.000
615.000	1202.000
616.000	1598.000
617.000	2076.000
618.000	2518.000
619.000	3134.000
620.000	3673.000
621.000	4364.000
622.000	4754.000
623.000	5240.000
624.000	5348.000
625.000	5640.000
626.000	5492.000
627.000	5392.000
628.000	5005.000
629.000	4479.000
630.000	3967.000
631.000	3470.000
632.000	2967.000
633.000	2365.000
634.000	1825.000
635.000	1417.000
636.000	1029.000
637.000	803.000
638.000	586.000
639.000	370.000
640.000	280.000
641.000	193.000
642.000	141.000
643.000	106.000
644.000	92.000
645.000	78.000
646.000	52.000
647.000	71.000
648.000	51.000
649.000	70.000
650.000	64.000
651.000	55.000
652.000	42.000
653.000	54.000
654.000	46.000
655.000	69.000
656.000	58.000
657.000	53.000
658.000	63.000
659.000	53.000
660.000	56.000
661.000	76.000
662.000	68.000
663.000	85.000
664.000	65.000
665.000	65.000
666.000	74.000
667.000	89.000
668.000	81.000
669.000	71.000
670.000	99.000
671.000	101.000
672.000	105.000
673.000	104.000
674.000	127.000
675.000	160.000
676.000	159.000
677.000	177.000
678.000	246.000
679.000	330.000
680.000	361.000
681.000	435.000
682.000	516.000
683.000	620.000
684.000	647.000
685.000	776.000
686.000	811.000
687.000	871.000
688.000	964.000
689.000	933.000
690.000	997.000
691.000	898.000
692.000	864.000
693.000	711.000
694.000	725.000
695.000	556.000
696.000	559.000
697.000	485.000
698.000	349.000
699.000	293.000
700.000	258.000
701.000	186.000
702.000	165.000
703.000	121.000
704.000	90.000
705.000	83.000
706.000	77.000
707.000	89.000
708.000	62.000
709.000	67.000
710.000	57.000
711.000	51.000
712.000	51.000
713.000	60.000
714.000	54.000
715.000	53.000
716.000	92.000
717.000	61.000
718.000	71.000
719.000	78.000
720.000	69.000
721.000	70.000
722.000	85.000
723.000	88.000
724.000	83.000
725.000	69.000
726.000	85.000
727.000	114.000
728.000	65.000
729.000	94.000
730.000	89.000
731.000	83.000
732.000	92.000
733.000	115.000
734.000	88.000
735.000	85.000
736.000	81.000
737.000	79.000
738.000	68.000
739.000	69.000
740.000	57.000
741.000	73.000
742.000	51.000
743.000	80.000
744.000	71.000
745.000	59.000
746.000	60.000
747.000	71.000
748.000	81.000
749.000	76.000
750.000	63.000
751.000	69.000
752.000	64.000
753.000	55.000
754.000	73.000
755.000	70.000
756.000	76.000
757.000	82.000
758.000	69.000
759.000	74.000
760.000	78.000
761.000	79.000
762.000	72.000
763.000	73.000
764.000	57.000
765.000	78.000
766.000	81.000
767.000	81.000
768.000	76.000
769.000	84.000
770.000	90.000
771.000	76.000
772.000	86.000
773.000	103.000
774.000	89.000
775.000	75.000
776.000	82.000
777.000	95.000
778.000	98.000
779.000	116.000
780.000	106.000
781.000	107.000
782.000	117.000
783.000	111.000
784.000	142.000
785.000	133.000
786.000	126.000
787.000	124.000
788.000	130.000
789.000	139.000
790.000	138.000
791.000	158.000
792.000	134.000
793.000	131.000
794.000	145.000
795.000	138.000
796.000	134.000
797.000	154.000
798.000	149.000
799.000	149.000
800.000	179.000
801.000	144.000
802.000	170.000
803.000	153.000
804.000	175.000
805.000	159.000
806.000	157.000
807.000	162.000
808.000	187.000
809.000	210.000
810.000	186.000
811.000	195.000
812.000	186.000
813.000	256.000
814.000	264.000
815.000	270.000
816.000	273.000
817.000	304.000
818.000	296.000
819.000	262.000
820.000	315.000
821.000	300.000
822.000	293.000
823.000	297.000
824.000	260.000
825.000	249.000
826.000	216.000
827.000	215.000
828.000	186.000
829.000	147.000
830.000	162.000
831.000	152.000
832.000	174.000
833.000	126.000
834.000	130.000
835.000	128.000
836.000	120.000
837.000	128.000
838.000	129.000
839.000	129.000
840.000	112.000
841.000	113.000
842.000	138.000
843.000	116.000
844.000	124.000
845.000	116.000
846.000	119.000
847.000	119.000
848.000	119.000
849.000	125.000
850.000	131.000
851.000	134.000
852.000	112.000
853.000	112.000
854.000	121.000
855.000	122.000
856.000	120.000
857.000	115.000
858.000	106.000
859.000	118.000
860.000	109.000
861.000	126.000
862.000	118.000
863.000	131.000
864.000	112.000
865.000	94.000
866.000	132.000
867.000	117.000
868.000	131.000
869.000	112.000
870.000	98.000
871.000	104.000
872.000	106.000
873.000	113.000
874.000	128.000
875.000	92.000
876.000	105.000
877.000	109.000
878.000	117.000
879.000	118.000
880.000	90.000
881.000	132.000
882.000	121.000
883.000	127.000
884.000	117.000
885.000	138.000
886.000	125.000
887.000	131.000
888.000	114.000
889.000	128.000
890.000	117.000
891.000	134.000
892.000	135.000
893.000	115.000
894.000	118.000
895.000	141.000
896.000	127.000
897.000	137.000
898.000	134.000
899.000	130.000
900.000	128.000
901.000	127.000
902.000	131.000
903.000	151.000
904.000	135.000
905.000	169.000
906.000	159.000
907.000	176.000
908.000	149.000
909.000	169.000
910.000	143.000
911.000	165.000
912.000	141.000
913.000	174.000
914.000	195.000
915.000	172.000
916.000	165.000
917.000	165.000
918.000	179.000
919.000	177.000
920.000	167.000
921.000	191.000
922.000	173.000
923.000	206.000
924.000	187.000
925.000	157.000
926.000	170.000
927.000	191.000
928.000	216.000
929.000	177.000
930.000	200.000
931.000	219.000
932.000	228.000
933.000	201.000
934.000	199.000
935.000	207.000
936.000	235.000
937.000	226.000
938.000	228.000
939.000	241.000
940.000	253.000
941.000	274.000
942.000	253.000
943.000	238.000
944.000	274.000
945.000	264.000
946.000	258.000
947.000	219.000
948.000	235.000
949.000	251.000
950.000	236.000
951.000	228.000
952.000	212.000
953.000	191.000
954.000	211.000
955.000	159.000
956.000	174.000
957.000	161.000
958.000	181.000
959.000	152.000
960.000	160.000
961.000	161.000
962.000	167.000
963.000	175.000
964.000	181.000
965.000	190.000
966.000	187.000
967.000	170.000
968.000	154.000
969.000	201.000
970.000	176.000
971.000	191.000
972.000	156.000
973.000	175.000
974.000	196.000
975.000	181.000
976.000	179.000
977.000	164.000
978.000	156.000
979.000	161.000
980.000	179.000
981.000	179.000
982.000	143.000
983.000	148.000
984.000	159.000
985.000	156.000
986.000	138.000
987.000	152.000
988.000	137.000
989.000	130.000
990.000	136.000
991.000	155.000
992.000	151.000
993.000	132.000
994.000	144.000
995.000	133.000
996.000	157.000
997.000	157.000
998.000	131.000
999.000	141.000
1000.000	139.000
1001.000	137.000
1002.000	151.000
1003.000	129.000
1004.000	111.000
1005.000	107.000
1006.000	119.000
1007.000	126.000
1008.000	128.000
1009.000	128.000
1010.000	164.000
1011.000	117.000
1012.000	111.000
1013.000	144.000
1014.000	142.000
1015.000	126.000
1016.000	139.000
1017.000	134.000
1018.000	140.000
1019.000	124.000
1020.000	131.000
1021.000	150.000
1022.000	132.000
1023.000	118.000
1024.000	145.000
1025.000	158.000
1026.000	139.000
1027.000	162.000
1028.000	151.000
1029.000	172.000
1030.000	152.000
1031.000	150.000
1032.000	125.000
1033.000	154.000
1034.000	187.000
1035.000	151.000
1036.000	152.000
1037.000	139.000
1038.000	141.000
1039.000	146.000
1040.000	148.000
1041.000	132.000
1042.000	134.000
1043.000	148.000
1044.000	151.000
1045.000	138.000
1046.000	152.000
1047.000	144.000
1048.000	161.000
1049.000	136.000
1050.000	162.000
1051.000	146.000
1052.000	143.000
1053.000	150.000
1054.000	155.000
1055.000	127.000
1056.000	166.000
1057.000	157.000
1058.000	152.000
1059.000	154.000
1060.000	167.000
1061.000	168.000
1062.000	132.000
1063.000	160.000
1064.000	158.000
1065.000	143.000
1066.000	162.000
1067.000	168.000
1068.000	156.000
1069.000	168.000
1070.000	160.000
1071.000	167.000
1072.000	145.000
1073.000	146.000
1074.000	130.000
1075.000	146.000
1076.000	160.000
1077.000	143.000
1078.000	161.000
1079.000	172.000
1080.000	169.000
1081.000	178.000
1082.000	169.000
1083.000	145.000
1084.000	153.000
1085.000	163.000
1086.000	155.000
1087.000	146.000
1088.000	165.000
1089.000	181.000
1090.000	169.000
1091.000	152.000
1092.000	177.000
1093.000	150.000
1094.000	137.000
1095.000	182.000
1096.000	141.000
1097.000	172.000
1098.000	171.000
1099.000	155.000
1100.000	201.000
1101.000	151.000
1102.000	151.000
1103.000	172.000
1104.000	196.000
1105.000	191.000
1106.000	164.000
1107.000	166.000
1108.000	167.000
1109.000	174.000
1110.000	152.000
1111.000	155.000
1112.000	155.000
1113.000	163.000
1114.000	159.000
1115.000	143.000
1116.000	152.000
1117.000	170.000
1118.000	135.000
1119.000	154.000
1120.000	149.000
1121.000	163.000
1122.000	154.000
1123.000	161.000
1124.000	164.000
1125.000	154.000
1126.000	169.000
1127.000	150.000
1128.000	163.000
1129.000	180.000
1130.000	156.000
1131.000	137.000
1132.000	158.000
1133.000	168.000
1134.000	159.000
1135.000	153.000
1136.000	178.000
1137.000	158.000
1138.000	138.000
1139.000	131.000
1140.000	155.000
1141.000	161.000
1142.000	161.000
1143.000	153.000
1144.000	171.000
1145.000	175.000
1146.000	156.000
1147.000	173.000
1148.000	163.000
1149.000	154.000
1150.000	168.000
1151.000	183.000
1152.000	167.000
1153.000	180.000
1154.000	152.000
1155.000	169.000
1156.000	191.000
1157.000	172.000
