Date:	23-Sep-20		Time:	10:33 PM		Version no:	0.00		Project name:	55		Sample name:	222		Section name:	section		Position	1245.745018	mm	E0	0.000000	keV	E1	1.000000	keV/channel	sample surface	7.374723	cm	Tube anode:	Mo		Tube voltage:	30	kV	Tube current:	30	mA	gain	15		std. database			resultfile	result		matrix element	11		sample thickness	1.000000		air passage	0.560000	cm	comments	in position		peaking_time	0.300000	m-sec	trigger_threshold	40.000000	V	mca_bin_width	2.000000	no:	number_mca_channels	2048.000000	no:	gap_time	2048.000000	m-sec	trigger_peaking_time	2048.000000	m-sec	GAINDAC	400		HIGHGAIN	400		TAURC	400		RCTAU	400		RCTAUFRAC	400		livetime	13.449503	seconds	runtime	15.000304	seconds	input_count_rate	45509.861167	cps	output_count_rate	40804.839689	cps	triggers	672039	seconds	events_in_run	596837	seconds	channel	content		1.000	0.000
2.000	0.000
3.000	0.000
4.000	0.000
5.000	0.000
6.000	0.000
7.000	0.000
8.000	0.000
9.000	0.000
10.000	0.000
11.000	0.000
12.000	0.000
13.000	0.000
14.000	0.000
15.000	0.000
16.000	0.000
17.000	0.000
18.000	0.000
19.000	0.000
20.000	0.000
21.000	0.000
22.000	0.000
23.000	0.000
24.000	0.000
25.000	0.000
26.000	0.000
27.000	0.000
28.000	0.000
29.000	0.000
30.000	0.000
31.000	0.000
32.000	0.000
33.000	0.000
34.000	0.000
35.000	0.000
36.000	0.000
37.000	1.000
38.000	0.000
39.000	0.000
40.000	0.000
41.000	0.000
42.000	1.000
43.000	0.000
44.000	1.000
45.000	0.000
46.000	1.000
47.000	0.000
48.000	0.000
49.000	1.000
50.000	2.000
51.000	2.000
52.000	4.000
53.000	1.000
54.000	3.000
55.000	2.000
56.000	10.000
57.000	15.000
58.000	12.000
59.000	11.000
60.000	23.000
61.000	23.000
62.000	25.000
63.000	31.000
64.000	35.000
65.000	30.000
66.000	28.000
67.000	26.000
68.000	16.000
69.000	30.000
70.000	16.000
71.000	27.000
72.000	27.000
73.000	34.000
74.000	21.000
75.000	23.000
76.000	17.000
77.000	23.000
78.000	17.000
79.000	20.000
80.000	25.000
81.000	14.000
82.000	26.000
83.000	18.000
84.000	29.000
85.000	27.000
86.000	28.000
87.000	25.000
88.000	23.000
89.000	32.000
90.000	20.000
91.000	22.000
92.000	26.000
93.000	11.000
94.000	21.000
95.000	16.000
96.000	14.000
97.000	24.000
98.000	26.000
99.000	20.000
100.000	25.000
101.000	24.000
102.000	18.000
103.000	26.000
104.000	17.000
105.000	17.000
106.000	20.000
107.000	12.000
108.000	16.000
109.000	11.000
110.000	21.000
111.000	18.000
112.000	23.000
113.000	11.000
114.000	21.000
115.000	15.000
116.000	15.000
117.000	22.000
118.000	11.000
119.000	10.000
120.000	18.000
121.000	23.000
122.000	20.000
123.000	15.000
124.000	28.000
125.000	13.000
126.000	14.000
127.000	18.000
128.000	16.000
129.000	20.000
130.000	14.000
131.000	17.000
132.000	13.000
133.000	10.000
134.000	8.000
135.000	12.000
136.000	19.000
137.000	23.000
138.000	20.000
139.000	16.000
140.000	20.000
141.000	21.000
142.000	20.000
143.000	20.000
144.000	29.000
145.000	27.000
146.000	28.000
147.000	15.000
148.000	17.000
149.000	17.000
150.000	21.000
151.000	20.000
152.000	23.000
153.000	21.000
154.000	14.000
155.000	18.000
156.000	22.000
157.000	13.000
158.000	24.000
159.000	12.000
160.000	15.000
161.000	19.000
162.000	11.000
163.000	15.000
164.000	23.000
165.000	27.000
166.000	49.000
167.000	48.000
168.000	59.000
169.000	66.000
170.000	65.000
171.000	78.000
172.000	70.000
173.000	59.000
174.000	57.000
175.000	55.000
176.000	43.000
177.000	31.000
178.000	32.000
179.000	33.000
180.000	28.000
181.000	27.000
182.000	31.000
183.000	40.000
184.000	73.000
185.000	72.000
186.000	89.000
187.000	119.000
188.000	142.000
189.000	180.000
190.000	186.000
191.000	199.000
192.000	179.000
193.000	162.000
194.000	145.000
195.000	125.000
196.000	95.000
197.000	65.000
198.000	45.000
199.000	32.000
200.000	29.000
201.000	24.000
202.000	17.000
203.000	24.000
204.000	18.000
205.000	17.000
206.000	16.000
207.000	17.000
208.000	10.000
209.000	10.000
210.000	19.000
211.000	11.000
212.000	17.000
213.000	20.000
214.000	19.000
215.000	13.000
216.000	22.000
217.000	21.000
218.000	22.000
219.000	27.000
220.000	33.000
221.000	28.000
222.000	28.000
223.000	37.000
224.000	31.000
225.000	39.000
226.000	30.000
227.000	34.000
228.000	27.000
229.000	23.000
230.000	19.000
231.000	14.000
232.000	15.000
233.000	13.000
234.000	13.000
235.000	13.000
236.000	13.000
237.000	13.000
238.000	15.000
239.000	8.000
240.000	14.000
241.000	12.000
242.000	19.000
243.000	11.000
244.000	21.000
245.000	21.000
246.000	25.000
247.000	20.000
248.000	21.000
249.000	30.000
250.000	38.000
251.000	57.000
252.000	64.000
253.000	105.000
254.000	109.000
255.000	120.000
256.000	133.000
257.000	155.000
258.000	135.000
259.000	126.000
260.000	128.000
261.000	88.000
262.000	76.000
263.000	62.000
264.000	45.000
265.000	39.000
266.000	35.000
267.000	28.000
268.000	17.000
269.000	31.000
270.000	18.000
271.000	19.000
272.000	23.000
273.000	29.000
274.000	26.000
275.000	35.000
276.000	27.000
277.000	23.000
278.000	32.000
279.000	28.000
280.000	32.000
281.000	22.000
282.000	32.000
283.000	31.000
284.000	44.000
285.000	52.000
286.000	60.000
287.000	72.000
288.000	70.000
289.000	85.000
290.000	79.000
291.000	78.000
292.000	82.000
293.000	69.000
294.000	69.000
295.000	40.000
296.000	38.000
297.000	30.000
298.000	32.000
299.000	19.000
300.000	21.000
301.000	15.000
302.000	19.000
303.000	22.000
304.000	17.000
305.000	23.000
306.000	19.000
307.000	26.000
308.000	21.000
309.000	22.000
310.000	35.000
311.000	31.000
312.000	37.000
313.000	54.000
314.000	39.000
315.000	60.000
316.000	81.000
317.000	98.000
318.000	144.000
319.000	168.000
320.000	235.000
321.000	308.000
322.000	301.000
323.000	347.000
324.000	363.000
325.000	417.000
326.000	375.000
327.000	346.000
328.000	282.000
329.000	249.000
330.000	195.000
331.000	149.000
332.000	103.000
333.000	84.000
334.000	53.000
335.000	33.000
336.000	40.000
337.000	36.000
338.000	29.000
339.000	26.000
340.000	34.000
341.000	44.000
342.000	60.000
343.000	70.000
344.000	90.000
345.000	127.000
346.000	163.000
347.000	228.000
348.000	372.000
349.000	580.000
350.000	871.000
351.000	1355.000
352.000	2144.000
353.000	3199.000
354.000	4651.000
355.000	6140.000
356.000	8095.000
357.000	10047.000
358.000	12040.000
359.000	13724.000
360.000	14954.000
361.000	15596.000
362.000	15592.000
363.000	14835.000
364.000	13308.000
365.000	11481.000
366.000	9482.000
367.000	7379.000
368.000	5483.000
369.000	4005.000
370.000	2708.000
371.000	1774.000
372.000	1183.000
373.000	745.000
374.000	436.000
375.000	251.000
376.000	173.000
377.000	163.000
378.000	133.000
379.000	145.000
380.000	164.000
381.000	221.000
382.000	320.000
383.000	383.000
384.000	526.000
385.000	678.000
386.000	927.000
387.000	1175.000
388.000	1436.000
389.000	1754.000
390.000	1986.000
391.000	2228.000
392.000	2273.000
393.000	2331.000
394.000	2289.000
395.000	2009.000
396.000	1960.000
397.000	1648.000
398.000	1340.000
399.000	1005.000
400.000	740.000
401.000	569.000
402.000	387.000
403.000	256.000
404.000	174.000
405.000	125.000
406.000	64.000
407.000	46.000
408.000	23.000
409.000	16.000
410.000	12.000
411.000	11.000
412.000	9.000
413.000	13.000
414.000	7.000
415.000	13.000
416.000	4.000
417.000	3.000
418.000	10.000
419.000	8.000
420.000	10.000
421.000	12.000
422.000	6.000
423.000	6.000
424.000	16.000
425.000	14.000
426.000	14.000
427.000	14.000
428.000	17.000
429.000	25.000
430.000	27.000
431.000	37.000
432.000	64.000
433.000	77.000
434.000	90.000
435.000	127.000
436.000	157.000
437.000	191.000
438.000	195.000
439.000	216.000
440.000	257.000
441.000	244.000
442.000	246.000
443.000	243.000
444.000	226.000
445.000	167.000
446.000	149.000
447.000	123.000
448.000	104.000
449.000	83.000
450.000	58.000
451.000	45.000
452.000	44.000
453.000	45.000
454.000	39.000
455.000	28.000
456.000	33.000
457.000	46.000
458.000	33.000
459.000	34.000
460.000	29.000
461.000	28.000
462.000	20.000
463.000	25.000
464.000	14.000
465.000	16.000
466.000	17.000
467.000	21.000
468.000	24.000
469.000	15.000
470.000	36.000
471.000	34.000
472.000	29.000
473.000	35.000
474.000	35.000
475.000	38.000
476.000	46.000
477.000	41.000
478.000	50.000
479.000	59.000
480.000	62.000
481.000	55.000
482.000	67.000
483.000	59.000
484.000	63.000
485.000	57.000
486.000	51.000
487.000	53.000
488.000	45.000
489.000	31.000
490.000	33.000
491.000	30.000
492.000	26.000
493.000	15.000
494.000	24.000
495.000	20.000
496.000	17.000
497.000	19.000
498.000	23.000
499.000	18.000
500.000	18.000
501.000	17.000
502.000	23.000
503.000	16.000
504.000	23.000
505.000	28.000
506.000	24.000
507.000	24.000
508.000	21.000
509.000	32.000
510.000	26.000
511.000	30.000
512.000	34.000
513.000	33.000
514.000	20.000
515.000	29.000
516.000	33.000
517.000	27.000
518.000	31.000
519.000	35.000
520.000	29.000
521.000	34.000
522.000	33.000
523.000	35.000
524.000	41.000
525.000	48.000
526.000	40.000
527.000	53.000
528.000	47.000
529.000	48.000
530.000	52.000
531.000	51.000
532.000	42.000
533.000	52.000
534.000	34.000
535.000	32.000
536.000	50.000
537.000	35.000
538.000	28.000
539.000	27.000
540.000	17.000
541.000	29.000
542.000	28.000
543.000	26.000
544.000	27.000
545.000	24.000
546.000	26.000
547.000	25.000
548.000	26.000
549.000	21.000
550.000	19.000
551.000	30.000
552.000	34.000
553.000	27.000
554.000	28.000
555.000	27.000
556.000	37.000
557.000	34.000
558.000	38.000
559.000	29.000
560.000	24.000
561.000	34.000
562.000	32.000
563.000	45.000
564.000	30.000
565.000	55.000
566.000	53.000
567.000	55.000
568.000	74.000
569.000	94.000
570.000	89.000
571.000	107.000
572.000	110.000
573.000	125.000
574.000	142.000
575.000	151.000
576.000	135.000
577.000	143.000
578.000	137.000
579.000	119.000
580.000	110.000
581.000	97.000
582.000	84.000
583.000	72.000
584.000	70.000
585.000	65.000
586.000	57.000
587.000	71.000
588.000	36.000
589.000	32.000
590.000	23.000
591.000	40.000
592.000	22.000
593.000	22.000
594.000	34.000
595.000	32.000
596.000	37.000
597.000	40.000
598.000	33.000
599.000	48.000
600.000	36.000
601.000	37.000
602.000	38.000
603.000	33.000
604.000	50.000
605.000	72.000
606.000	78.000
607.000	96.000
608.000	137.000
609.000	182.000
610.000	227.000
611.000	341.000
612.000	493.000
613.000	668.000
614.000	951.000
615.000	1232.000
616.000	1690.000
617.000	2164.000
618.000	2747.000
619.000	3333.000
620.000	4049.000
621.000	4471.000
622.000	5055.000
623.000	5568.000
624.000	5933.000
625.000	5842.000
626.000	5855.000
627.000	5728.000
628.000	5361.000
629.000	4990.000
630.000	4308.000
631.000	3642.000
632.000	3047.000
633.000	2557.000
634.000	1942.000
635.000	1538.000
636.000	1058.000
637.000	807.000
638.000	609.000
639.000	423.000
640.000	296.000
641.000	209.000
642.000	151.000
643.000	124.000
644.000	116.000
645.000	65.000
646.000	74.000
647.000	73.000
648.000	59.000
649.000	40.000
650.000	53.000
651.000	63.000
652.000	58.000
653.000	56.000
654.000	66.000
655.000	58.000
656.000	59.000
657.000	61.000
658.000	70.000
659.000	48.000
660.000	81.000
661.000	62.000
662.000	71.000
663.000	65.000
664.000	72.000
665.000	58.000
666.000	82.000
667.000	71.000
668.000	86.000
669.000	88.000
670.000	80.000
671.000	94.000
672.000	121.000
673.000	130.000
674.000	139.000
675.000	136.000
676.000	171.000
677.000	224.000
678.000	244.000
679.000	297.000
680.000	349.000
681.000	487.000
682.000	570.000
683.000	676.000
684.000	712.000
685.000	796.000
686.000	874.000
687.000	955.000
688.000	1049.000
689.000	995.000
690.000	946.000
691.000	1011.000
692.000	905.000
693.000	829.000
694.000	796.000
695.000	677.000
696.000	580.000
697.000	457.000
698.000	413.000
699.000	309.000
700.000	252.000
701.000	196.000
702.000	156.000
703.000	151.000
704.000	108.000
705.000	77.000
706.000	90.000
707.000	63.000
708.000	82.000
709.000	70.000
710.000	57.000
711.000	85.000
712.000	43.000
713.000	60.000
714.000	69.000
715.000	56.000
716.000	61.000
717.000	72.000
718.000	83.000
719.000	65.000
720.000	86.000
721.000	76.000
722.000	104.000
723.000	79.000
724.000	81.000
725.000	104.000
726.000	94.000
727.000	89.000
728.000	107.000
729.000	95.000
730.000	103.000
731.000	104.000
732.000	94.000
733.000	84.000
734.000	88.000
735.000	86.000
736.000	75.000
737.000	96.000
738.000	70.000
739.000	71.000
740.000	70.000
741.000	72.000
742.000	70.000
743.000	60.000
744.000	73.000
745.000	70.000
746.000	82.000
747.000	76.000
748.000	54.000
749.000	68.000
750.000	62.000
751.000	79.000
752.000	82.000
753.000	71.000
754.000	62.000
755.000	71.000
756.000	72.000
757.000	67.000
758.000	84.000
759.000	68.000
760.000	75.000
761.000	81.000
762.000	64.000
763.000	67.000
764.000	64.000
765.000	83.000
766.000	81.000
767.000	81.000
768.000	69.000
769.000	77.000
770.000	82.000
771.000	75.000
772.000	87.000
773.000	76.000
774.000	97.000
775.000	96.000
776.000	75.000
777.000	102.000
778.000	103.000
779.000	111.000
780.000	102.000
781.000	121.000
782.000	136.000
783.000	143.000
784.000	129.000
785.000	143.000
786.000	129.000
787.000	151.000
788.000	152.000
789.000	127.000
790.000	152.000
791.000	122.000
792.000	128.000
793.000	136.000
794.000	130.000
795.000	147.000
796.000	150.000
797.000	144.000
798.000	127.000
799.000	162.000
800.000	164.000
801.000	153.000
802.000	158.000
803.000	166.000
804.000	181.000
805.000	165.000
806.000	153.000
807.000	187.000
808.000	178.000
809.000	204.000
810.000	207.000
811.000	204.000
812.000	204.000
813.000	249.000
814.000	248.000
815.000	259.000
816.000	299.000
817.000	281.000
818.000	325.000
819.000	298.000
820.000	299.000
821.000	297.000
822.000	285.000
823.000	303.000
824.000	261.000
825.000	236.000
826.000	235.000
827.000	215.000
828.000	194.000
829.000	175.000
830.000	163.000
831.000	161.000
832.000	144.000
833.000	154.000
834.000	124.000
835.000	162.000
836.000	122.000
837.000	138.000
838.000	128.000
839.000	113.000
840.000	120.000
841.000	128.000
842.000	116.000
843.000	138.000
844.000	139.000
845.000	135.000
846.000	137.000
847.000	130.000
848.000	116.000
849.000	129.000
850.000	128.000
851.000	124.000
852.000	120.000
853.000	126.000
854.000	133.000
855.000	128.000
856.000	113.000
857.000	108.000
858.000	102.000
859.000	117.000
860.000	122.000
861.000	105.000
862.000	128.000
863.000	129.000
864.000	141.000
865.000	127.000
866.000	116.000
867.000	99.000
868.000	119.000
869.000	117.000
870.000	109.000
871.000	128.000
872.000	102.000
873.000	102.000
874.000	106.000
875.000	114.000
876.000	120.000
877.000	120.000
878.000	151.000
879.000	124.000
880.000	94.000
881.000	125.000
882.000	102.000
883.000	130.000
884.000	114.000
885.000	107.000
886.000	133.000
887.000	127.000
888.000	125.000
889.000	121.000
890.000	117.000
891.000	126.000
892.000	119.000
893.000	117.000
894.000	123.000
895.000	126.000
896.000	132.000
897.000	141.000
898.000	126.000
899.000	141.000
900.000	133.000
901.000	133.000
902.000	144.000
903.000	162.000
904.000	175.000
905.000	170.000
906.000	145.000
907.000	164.000
908.000	202.000
909.000	178.000
910.000	159.000
911.000	159.000
912.000	191.000
913.000	147.000
914.000	179.000
915.000	149.000
916.000	211.000
917.000	164.000
918.000	172.000
919.000	173.000
920.000	182.000
921.000	149.000
922.000	166.000
923.000	173.000
924.000	182.000
925.000	189.000
926.000	180.000
927.000	183.000
928.000	180.000
929.000	195.000
930.000	200.000
931.000	186.000
932.000	198.000
933.000	225.000
934.000	222.000
935.000	199.000
936.000	214.000
937.000	248.000
938.000	254.000
939.000	225.000
940.000	231.000
941.000	258.000
942.000	286.000
943.000	252.000
944.000	251.000
945.000	241.000
946.000	226.000
947.000	263.000
948.000	224.000
949.000	225.000
950.000	240.000
951.000	209.000
952.000	193.000
953.000	205.000
954.000	185.000
955.000	203.000
956.000	192.000
957.000	192.000
958.000	165.000
959.000	173.000
960.000	159.000
961.000	172.000
962.000	173.000
963.000	165.000
964.000	182.000
965.000	186.000
966.000	192.000
967.000	189.000
968.000	174.000
969.000	198.000
970.000	183.000
971.000	192.000
972.000	204.000
973.000	183.000
974.000	207.000
975.000	181.000
976.000	160.000
977.000	199.000
978.000	168.000
979.000	172.000
980.000	156.000
981.000	147.000
982.000	166.000
983.000	136.000
984.000	160.000
985.000	160.000
986.000	153.000
987.000	160.000
988.000	156.000
989.000	168.000
990.000	153.000
991.000	147.000
992.000	133.000
993.000	160.000
994.000	144.000
995.000	128.000
996.000	133.000
997.000	150.000
998.000	164.000
999.000	138.000
1000.000	127.000
1001.000	144.000
1002.000	126.000
1003.000	135.000
1004.000	135.000
1005.000	133.000
1006.000	147.000
1007.000	137.000
1008.000	133.000
1009.000	117.000
1010.000	131.000
1011.000	142.000
1012.000	142.000
1013.000	122.000
1014.000	139.000
1015.000	135.000
1016.000	145.000
1017.000	147.000
1018.000	145.000
1019.000	126.000
1020.000	161.000
1021.000	149.000
1022.000	140.000
1023.000	152.000
1024.000	147.000
1025.000	130.000
1026.000	135.000
1027.000	145.000
1028.000	131.000
1029.000	154.000
1030.000	136.000
1031.000	158.000
1032.000	138.000
1033.000	138.000
1034.000	165.000
1035.000	146.000
1036.000	131.000
1037.000	136.000
1038.000	160.000
1039.000	137.000
1040.000	144.000
1041.000	149.000
1042.000	141.000
1043.000	146.000
1044.000	165.000
1045.000	153.000
1046.000	152.000
1047.000	142.000
1048.000	145.000
1049.000	141.000
1050.000	154.000
1051.000	177.000
1052.000	147.000
1053.000	185.000
1054.000	141.000
1055.000	164.000
1056.000	138.000
1057.000	167.000
1058.000	140.000
1059.000	156.000
1060.000	155.000
1061.000	166.000
1062.000	136.000
1063.000	201.000
1064.000	161.000
1065.000	171.000
1066.000	150.000
1067.000	166.000
1068.000	143.000
1069.000	165.000
1070.000	139.000
1071.000	155.000
1072.000	180.000
1073.000	163.000
1074.000	170.000
1075.000	149.000
1076.000	163.000
1077.000	198.000
1078.000	164.000
1079.000	153.000
1080.000	163.000
1081.000	152.000
1082.000	165.000
1083.000	182.000
1084.000	153.000
1085.000	153.000
1086.000	162.000
1087.000	152.000
1088.000	184.000
1089.000	178.000
1090.000	164.000
1091.000	156.000
1092.000	162.000
1093.000	148.000
1094.000	170.000
1095.000	171.000
1096.000	183.000
1097.000	170.000
1098.000	169.000
1099.000	199.000
1100.000	156.000
1101.000	166.000
1102.000	170.000
1103.000	166.000
1104.000	159.000
1105.000	172.000
1106.000	171.000
1107.000	182.000
1108.000	143.000
1109.000	160.000
1110.000	151.000
1111.000	177.000
1112.000	140.000
1113.000	163.000
1114.000	180.000
1115.000	169.000
1116.000	167.000
1117.000	152.000
1118.000	142.000
1119.000	145.000
1120.000	146.000
1121.000	153.000
1122.000	146.000
1123.000	159.000
1124.000	153.000
1125.000	169.000
1126.000	176.000
1127.000	171.000
1128.000	164.000
1129.000	177.000
1130.000	160.000
1131.000	174.000
1132.000	168.000
1133.000	160.000
1134.000	180.000
1135.000	177.000
1136.000	185.000
1137.000	171.000
1138.000	172.000
1139.000	158.000
1140.000	175.000
1141.000	176.000
1142.000	181.000
1143.000	153.000
1144.000	146.000
1145.000	167.000
1146.000	177.000
1147.000	155.000
1148.000	170.000
1149.000	176.000
1150.000	175.000
1151.000	154.000
1152.000	169.000
1153.000	157.000
1154.000	163.000
1155.000	176.000
1156.000	171.000
