Date:	18-Sep-20		Time:	1:09 AM		Version no:	0.00		Project name:	55		Sample name:	222		Section name:	section		Position	0.000000	mm	E0	0.000000	keV	E1	1.000000	keV/channel	sample surface	2.000000	cm	Tube anode:	Mo		Tube voltage:	30	kV	Tube current:	30	mA	gain	15		std. database			resultfile	result		matrix element	11		sample thickness	1.000000		air passage	0.560000	cm	comments	not in position		peaking_time	0.300000	m-sec	trigger_threshold	40.000000	V	mca_bin_width	2.000000	no:	number_mca_channels	2048.000000	no:	gap_time	2048.000000	m-sec	trigger_peaking_time	2048.000000	m-sec	GAINDAC	400		HIGHGAIN	400		TAURC	400		RCTAU	400		RCTAUFRAC	400		livetime	13.363346	seconds	runtime	15.000103	seconds	input_count_rate	47301.998987	cps	output_count_rate	42140.575897	cps	triggers	697379	seconds	events_in_run	615755	seconds	channel	content		1.000	0.000
2.000	0.000
3.000	0.000
4.000	0.000
5.000	0.000
6.000	0.000
7.000	0.000
8.000	0.000
9.000	0.000
10.000	0.000
11.000	0.000
12.000	0.000
13.000	0.000
14.000	0.000
15.000	0.000
16.000	0.000
17.000	0.000
18.000	0.000
19.000	0.000
20.000	0.000
21.000	0.000
22.000	0.000
23.000	0.000
24.000	0.000
25.000	0.000
26.000	0.000
27.000	0.000
28.000	0.000
29.000	0.000
30.000	0.000
31.000	30.000
32.000	33.000
33.000	27.000
34.000	40.000
35.000	36.000
36.000	40.000
37.000	34.000
38.000	39.000
39.000	27.000
40.000	37.000
41.000	46.000
42.000	36.000
43.000	37.000
44.000	50.000
45.000	26.000
46.000	60.000
47.000	49.000
48.000	56.000
49.000	103.000
50.000	140.000
51.000	244.000
52.000	302.000
53.000	402.000
54.000	561.000
55.000	745.000
56.000	982.000
57.000	1356.000
58.000	1902.000
59.000	2785.000
60.000	3535.000
61.000	4148.000
62.000	4475.000
63.000	4762.000
64.000	4563.000
65.000	4485.000
66.000	4318.000
67.000	4252.000
68.000	3940.000
69.000	3951.000
70.000	3935.000
71.000	3915.000
72.000	3783.000
73.000	3828.000
74.000	3839.000
75.000	3782.000
76.000	3769.000
77.000	3696.000
78.000	3781.000
79.000	3705.000
80.000	3642.000
81.000	3745.000
82.000	3770.000
83.000	3890.000
84.000	3758.000
85.000	3649.000
86.000	3773.000
87.000	3684.000
88.000	3616.000
89.000	3492.000
90.000	3367.000
91.000	3367.000
92.000	3243.000
93.000	3307.000
94.000	3270.000
95.000	3265.000
96.000	3216.000
97.000	3239.000
98.000	3164.000
99.000	3059.000
100.000	3132.000
101.000	3113.000
102.000	3054.000
103.000	2941.000
104.000	3040.000
105.000	2933.000
106.000	2880.000
107.000	2902.000
108.000	2826.000
109.000	2898.000
110.000	2789.000
111.000	2755.000
112.000	2650.000
113.000	2730.000
114.000	2641.000
115.000	2587.000
116.000	2622.000
117.000	2639.000
118.000	2573.000
119.000	2499.000
120.000	2584.000
121.000	2446.000
122.000	2510.000
123.000	2449.000
124.000	2369.000
125.000	2385.000
126.000	2333.000
127.000	2242.000
128.000	2200.000
129.000	2198.000
130.000	2183.000
131.000	2182.000
132.000	2199.000
133.000	2156.000
134.000	2165.000
135.000	2187.000
136.000	2134.000
137.000	2216.000
138.000	2433.000
139.000	2508.000
140.000	2827.000
141.000	3044.000
142.000	3652.000
143.000	4057.000
144.000	4575.000
145.000	4835.000
146.000	4832.000
147.000	4809.000
148.000	4670.000
149.000	4395.000
150.000	4274.000
151.000	3961.000
152.000	4035.000
153.000	3937.000
154.000	3861.000
155.000	3719.000
156.000	3370.000
157.000	3150.000
158.000	2858.000
159.000	2603.000
160.000	2445.000
161.000	2658.000
162.000	3041.000
163.000	4135.000
164.000	5606.000
165.000	7899.000
166.000	10722.000
167.000	14125.000
168.000	17709.000
169.000	20425.000
170.000	22390.000
171.000	22695.000
172.000	21628.000
173.000	18897.000
174.000	15784.000
175.000	12740.000
176.000	9552.000
177.000	7354.000
178.000	5826.000
179.000	4720.000
180.000	4114.000
181.000	3803.000
182.000	3689.000
183.000	3789.000
184.000	4023.000
185.000	4610.000
186.000	5265.000
187.000	6187.000
188.000	7231.000
189.000	8080.000
190.000	8747.000
191.000	9070.000
192.000	8825.000
193.000	7986.000
194.000	6987.000
195.000	5861.000
196.000	4901.000
197.000	3930.000
198.000	3167.000
199.000	2663.000
200.000	2259.000
201.000	1964.000
202.000	1849.000
203.000	1748.000
204.000	1703.000
205.000	1670.000
206.000	1659.000
207.000	1633.000
208.000	1620.000
209.000	1628.000
210.000	1619.000
211.000	1761.000
212.000	1704.000
213.000	1685.000
214.000	1718.000
215.000	1728.000
216.000	1835.000
217.000	1859.000
218.000	2036.000
219.000	2167.000
220.000	2376.000
221.000	2525.000
222.000	2625.000
223.000	2749.000
224.000	2675.000
225.000	2584.000
226.000	2399.000
227.000	2315.000
228.000	2145.000
229.000	1956.000
230.000	1798.000
231.000	1664.000
232.000	1552.000
233.000	1508.000
234.000	1423.000
235.000	1447.000
236.000	1363.000
237.000	1318.000
238.000	1373.000
239.000	1324.000
240.000	1360.000
241.000	1336.000
242.000	1332.000
243.000	1387.000
244.000	1405.000
245.000	1529.000
246.000	1706.000
247.000	1963.000
248.000	2311.000
249.000	2938.000
250.000	3932.000
251.000	5171.000
252.000	6555.000
253.000	8122.000
254.000	9661.000
255.000	11117.000
256.000	12079.000
257.000	12501.000
258.000	12234.000
259.000	11407.000
260.000	10040.000
261.000	8472.000
262.000	6803.000
263.000	5289.000
264.000	4205.000
265.000	3531.000
266.000	3048.000
267.000	2732.000
268.000	2642.000
269.000	2677.000
270.000	2839.000
271.000	2957.000
272.000	2893.000
273.000	3061.000
274.000	3095.000
275.000	3197.000
276.000	2979.000
277.000	2874.000
278.000	2825.000
279.000	2799.000
280.000	2863.000
281.000	3069.000
282.000	3301.000
283.000	3960.000
284.000	4909.000
285.000	5736.000
286.000	6956.000
287.000	8004.000
288.000	8700.000
289.000	9339.000
290.000	9470.000
291.000	9346.000
292.000	8353.000
293.000	7509.000
294.000	6347.000
295.000	5305.000
296.000	4170.000
297.000	3417.000
298.000	2632.000
299.000	2290.000
300.000	1952.000
301.000	1808.000
302.000	1695.000
303.000	1822.000
304.000	1689.000
305.000	1836.000
306.000	2150.000
307.000	2289.000
308.000	2522.000
309.000	3049.000
310.000	3610.000
311.000	4373.000
312.000	5748.000
313.000	7927.000
314.000	11414.000
315.000	16521.000
316.000	23393.000
317.000	33634.000
318.000	46420.000
319.000	62133.000
320.000	79633.000
321.000	97427.000
322.000	113166.000
323.000	125162.000
324.000	133309.000
325.000	133457.000
326.000	127932.000
327.000	115959.000
328.000	99748.000
329.000	81783.000
330.000	64053.000
331.000	47984.000
332.000	34546.000
333.000	23938.000
334.000	15873.000
335.000	10234.000
336.000	6915.000
337.000	5000.000
338.000	3809.000
339.000	3707.000
340.000	3784.000
341.000	4531.000
342.000	5562.000
343.000	7245.000
344.000	9335.000
345.000	12040.000
346.000	16001.000
347.000	21470.000
348.000	28845.000
349.000	39487.000
350.000	53676.000
351.000	75245.000
352.000	104610.000
353.000	144610.000
354.000	196556.000
355.000	261159.000
356.000	333539.000
357.000	413668.000
358.000	491073.000
359.000	557993.000
360.000	606734.000
361.000	630353.000
362.000	626119.000
363.000	592895.000
364.000	536089.000
365.000	460005.000
366.000	380474.000
367.000	299294.000
368.000	224873.000
369.000	161868.000
370.000	111107.000
371.000	73295.000
372.000	47351.000
373.000	28880.000
374.000	18132.000
375.000	11707.000
376.000	8126.000
377.000	6427.000
378.000	5939.000
379.000	6368.000
380.000	7475.000
381.000	9455.000
382.000	12189.000
383.000	16377.000
384.000	21822.000
385.000	28806.000
386.000	37600.000
387.000	47949.000
388.000	58827.000
389.000	70201.000
390.000	79464.000
391.000	87370.000
392.000	92799.000
393.000	93440.000
394.000	90693.000
395.000	84666.000
396.000	75571.000
397.000	65024.000
398.000	52919.000
399.000	42030.000
400.000	31885.000
401.000	23587.000
402.000	16620.000
403.000	11596.000
404.000	7795.000
405.000	5349.000
406.000	3834.000
407.000	2784.000
408.000	2149.000
409.000	1780.000
410.000	1491.000
411.000	1452.000
412.000	1408.000
413.000	1308.000
414.000	1274.000
415.000	1385.000
416.000	1385.000
417.000	1363.000
418.000	1392.000
419.000	1498.000
420.000	1497.000
421.000	1557.000
422.000	1689.000
423.000	1885.000
424.000	2124.000
425.000	2516.000
426.000	3332.000
427.000	4443.000
428.000	6217.000
429.000	8806.000
430.000	12873.000
431.000	18219.000
432.000	25929.000
433.000	34931.000
434.000	46944.000
435.000	59768.000
436.000	73518.000
437.000	87892.000
438.000	100993.000
439.000	111330.000
440.000	119067.000
441.000	121210.000
442.000	119617.000
443.000	112924.000
444.000	103424.000
445.000	90148.000
446.000	76885.000
447.000	62440.000
448.000	50166.000
449.000	39572.000
450.000	30256.000
451.000	23663.000
452.000	19020.000
453.000	15623.000
454.000	13581.000
455.000	11980.000
456.000	10950.000
457.000	9869.000
458.000	9133.000
459.000	7924.000
460.000	7309.000
461.000	6359.000
462.000	5638.000
463.000	5268.000
464.000	4764.000
465.000	4556.000
466.000	4630.000
467.000	4954.000
468.000	5211.000
469.000	6013.000
470.000	6738.000
471.000	7565.000
472.000	8673.000
473.000	9757.000
474.000	11378.000
475.000	12860.000
476.000	14827.000
477.000	16890.000
478.000	19114.000
479.000	20688.000
480.000	22489.000
481.000	23546.000
482.000	23997.000
483.000	23757.000
484.000	23113.000
485.000	21511.000
486.000	19712.000
487.000	17373.000
488.000	15154.000
489.000	12709.000
490.000	10569.000
491.000	8945.000
492.000	7348.000
493.000	6180.000
494.000	5321.000
495.000	4695.000
496.000	4445.000
497.000	4063.000
498.000	3898.000
499.000	3909.000
500.000	3780.000
501.000	3824.000
502.000	3990.000
503.000	4233.000
504.000	4239.000
505.000	4423.000
506.000	4598.000
507.000	4747.000
508.000	4920.000
509.000	5191.000
510.000	5485.000
511.000	5478.000
512.000	5820.000
513.000	5898.000
514.000	6190.000
515.000	6254.000
516.000	6558.000
517.000	6604.000
518.000	6716.000
519.000	6987.000
520.000	7198.000
521.000	7649.000
522.000	7763.000
523.000	8263.000
524.000	8829.000
525.000	9033.000
526.000	9453.000
527.000	10043.000
528.000	9885.000
529.000	10171.000
530.000	9978.000
531.000	9660.000
532.000	9163.000
533.000	8661.000
534.000	8155.000
535.000	7681.000
536.000	6937.000
537.000	6617.000
538.000	6113.000
539.000	5749.000
540.000	5432.000
541.000	5280.000
542.000	5112.000
543.000	5047.000
544.000	5099.000
545.000	4896.000
546.000	5027.000
547.000	4947.000
548.000	5091.000
549.000	5038.000
550.000	5044.000
551.000	5018.000
552.000	5119.000
553.000	5097.000
554.000	5111.000
555.000	5125.000
556.000	5474.000
557.000	5477.000
558.000	5786.000
559.000	5948.000
560.000	6350.000
561.000	7010.000
562.000	8066.000
563.000	9170.000
564.000	11095.000
565.000	13184.000
566.000	16357.000
567.000	20207.000
568.000	24738.000
569.000	29997.000
570.000	36070.000
571.000	41962.000
572.000	48004.000
573.000	53308.000
574.000	57447.000
575.000	60197.000
576.000	61364.000
577.000	60454.000
578.000	58871.000
579.000	55017.000
580.000	50260.000
581.000	44521.000
582.000	38394.000
583.000	32512.000
584.000	27258.000
585.000	22474.000
586.000	17950.000
587.000	14981.000
588.000	12654.000
589.000	10845.000
590.000	9778.000
591.000	8925.000
592.000	8424.000
593.000	8159.000
594.000	7994.000
595.000	8073.000
596.000	8162.000
597.000	8479.000
598.000	8746.000
599.000	9183.000
600.000	9672.000
601.000	10189.000
602.000	10852.000
603.000	12139.000
604.000	13636.000
605.000	16248.000
606.000	20016.000
607.000	26311.000
608.000	35435.000
609.000	49597.000
610.000	70821.000
611.000	101023.000
612.000	144350.000
613.000	203459.000
614.000	281997.000
615.000	383009.000
616.000	508850.000
617.000	655559.000
618.000	824345.000
619.000	1007508.000
620.000	1197011.000
621.000	1379267.000
622.000	1545262.000
623.000	1679243.000
624.000	1769786.000
625.000	1813155.000
626.000	1805461.000
627.000	1738858.000
628.000	1628431.000
629.000	1480225.000
630.000	1307744.000
631.000	1120537.000
632.000	932233.000
633.000	754604.000
634.000	593836.000
635.000	454838.000
636.000	337981.000
637.000	247600.000
638.000	176282.000
639.000	123758.000
640.000	86402.000
641.000	59668.000
642.000	42164.000
643.000	30492.000
644.000	23144.000
645.000	18191.000
646.000	15454.000
647.000	13710.000
648.000	12498.000
649.000	11962.000
650.000	11458.000
651.000	11182.000
652.000	11267.000
653.000	11194.000
654.000	11164.000
655.000	11252.000
656.000	11489.000
657.000	11472.000
658.000	11686.000
659.000	11953.000
660.000	11906.000
661.000	12145.000
662.000	12591.000
663.000	12872.000
664.000	13486.000
665.000	13649.000
666.000	14269.000
667.000	14768.000
668.000	15966.000
669.000	17104.000
670.000	18452.000
671.000	20517.000
672.000	22978.000
673.000	26818.000
674.000	31597.000
675.000	38022.000
676.000	46516.000
677.000	57375.000
678.000	71641.000
679.000	88391.000
680.000	109003.000
681.000	132262.000
682.000	158735.000
683.000	185825.000
684.000	213473.000
685.000	239757.000
686.000	261948.000
687.000	279682.000
688.000	291596.000
689.000	295715.000
690.000	293241.000
691.000	282383.000
692.000	267023.000
693.000	244308.000
694.000	217258.000
695.000	190389.000
696.000	160641.000
697.000	134703.000
698.000	109596.000
699.000	86962.000
700.000	68645.000
701.000	53167.000
702.000	41195.000
703.000	31667.000
704.000	24741.000
705.000	19966.000
706.000	16301.000
707.000	13809.000
708.000	12107.000
709.000	11153.000
710.000	10537.000
711.000	10295.000
712.000	10245.000
713.000	10016.000
714.000	10091.000
715.000	10163.000
716.000	10713.000
717.000	10633.000
718.000	11033.000
719.000	11356.000
720.000	11765.000
721.000	11882.000
722.000	12555.000
723.000	13032.000
724.000	13469.000
725.000	13544.000
726.000	13928.000
727.000	14398.000
728.000	14472.000
729.000	14522.000
730.000	14492.000
731.000	14314.000
732.000	14261.000
733.000	13906.000
734.000	13619.000
735.000	13367.000
736.000	12983.000
737.000	12481.000
738.000	12295.000
739.000	12128.000
740.000	11791.000
741.000	11454.000
742.000	11366.000
743.000	11117.000
744.000	11025.000
745.000	11297.000
746.000	11127.000
747.000	11179.000
748.000	11111.000
749.000	11284.000
750.000	11285.000
751.000	11377.000
752.000	11566.000
753.000	11521.000
754.000	11531.000
755.000	11413.000
756.000	11731.000
757.000	11841.000
758.000	12074.000
759.000	12204.000
760.000	12150.000
761.000	12098.000
762.000	12313.000
763.000	12597.000
764.000	12509.000
765.000	12896.000
766.000	12806.000
767.000	13290.000
768.000	13338.000
769.000	13501.000
770.000	13775.000
771.000	13839.000
772.000	14224.000
773.000	14453.000
774.000	14905.000
775.000	15113.000
776.000	15544.000
777.000	15886.000
778.000	16387.000
779.000	16999.000
780.000	17789.000
781.000	18130.000
782.000	18923.000
783.000	19430.000
784.000	19841.000
785.000	20524.000
786.000	21084.000
787.000	21300.000
788.000	22130.000
789.000	22261.000
790.000	22614.000
791.000	22989.000
792.000	23230.000
793.000	23372.000
794.000	23879.000
795.000	24043.000
796.000	24068.000
797.000	24036.000
798.000	24428.000
799.000	24438.000
800.000	24586.000
801.000	24916.000
802.000	24573.000
803.000	25040.000
804.000	25691.000
805.000	25973.000
806.000	26317.000
807.000	27450.000
808.000	28690.000
809.000	29660.000
810.000	31417.000
811.000	33525.000
812.000	35295.000
813.000	37499.000
814.000	39676.000
815.000	41981.000
816.000	44115.000
817.000	44747.000
818.000	46085.000
819.000	46550.000
820.000	46204.000
821.000	45420.000
822.000	44649.000
823.000	42670.000
824.000	40159.000
825.000	37932.000
826.000	35266.000
827.000	32850.000
828.000	30491.000
829.000	28420.000
830.000	26462.000
831.000	25346.000
832.000	24416.000
833.000	23745.000
834.000	23716.000
835.000	23817.000
836.000	23703.000
837.000	24532.000
838.000	24792.000
839.000	25485.000
840.000	26137.000
841.000	26484.000
842.000	26707.000
843.000	26731.000
844.000	26912.000
845.000	26556.000
846.000	25842.000
847.000	25460.000
848.000	24155.000
849.000	23653.000
850.000	22983.000
851.000	22299.000
852.000	21489.000
853.000	20821.000
854.000	20431.000
855.000	19838.000
856.000	19454.000
857.000	19214.000
858.000	18950.000
859.000	18639.000
860.000	18900.000
861.000	18901.000
862.000	18873.000
863.000	18767.000
864.000	18938.000
865.000	18707.000
866.000	18816.000
867.000	19199.000
868.000	18966.000
869.000	19125.000
870.000	19342.000
871.000	19282.000
872.000	19297.000
873.000	19313.000
874.000	19300.000
875.000	19538.000
876.000	19824.000
877.000	19715.000
878.000	19957.000
879.000	20045.000
880.000	20028.000
881.000	20142.000
882.000	20249.000
883.000	20358.000
884.000	20413.000
885.000	20702.000
886.000	20904.000
887.000	21121.000
888.000	21161.000
889.000	21542.000
890.000	21845.000
891.000	21965.000
892.000	22457.000
893.000	22911.000
894.000	23315.000
895.000	23826.000
896.000	23970.000
897.000	24842.000
898.000	25087.000
899.000	25552.000
900.000	26276.000
901.000	26654.000
902.000	26975.000
903.000	27359.000
904.000	27460.000
905.000	27900.000
906.000	28160.000
907.000	28136.000
908.000	28714.000
909.000	28777.000
910.000	28657.000
911.000	28556.000
912.000	28749.000
913.000	28976.000
914.000	29036.000
915.000	29113.000
916.000	29421.000
917.000	28964.000
918.000	29234.000
919.000	29353.000
920.000	29825.000
921.000	30027.000
922.000	30427.000
923.000	30312.000
924.000	30257.000
925.000	30667.000
926.000	31241.000
927.000	31759.000
928.000	32107.000
929.000	32705.000
930.000	32876.000
931.000	33760.000
932.000	34777.000
933.000	34989.000
934.000	35767.000
935.000	36943.000
936.000	37657.000
937.000	38443.000
938.000	39826.000
939.000	40848.000
940.000	41644.000
941.000	42017.000
942.000	42545.000
943.000	42285.000
944.000	42778.000
945.000	42087.000
946.000	41398.000
947.000	40555.000
948.000	39948.000
949.000	38561.000
950.000	36943.000
951.000	36054.000
952.000	34498.000
953.000	33836.000
954.000	32417.000
955.000	31383.000
956.000	30310.000
957.000	29972.000
958.000	29287.000
959.000	29112.000
960.000	28871.000
961.000	28802.000
962.000	28588.000
963.000	28478.000
964.000	28757.000
965.000	29043.000
966.000	28828.000
967.000	29168.000
968.000	29485.000
969.000	29755.000
970.000	30310.000
971.000	29991.000
972.000	29800.000
973.000	29547.000
974.000	29721.000
975.000	29210.000
976.000	28988.000
977.000	28453.000
978.000	27746.000
979.000	27156.000
980.000	26555.000
981.000	26117.000
982.000	25751.000
983.000	25232.000
984.000	24674.000
985.000	24653.000
986.000	24003.000
987.000	23805.000
988.000	23797.000
989.000	23690.000
990.000	23533.000
991.000	22906.000
992.000	23065.000
993.000	22959.000
994.000	22925.000
995.000	22846.000
996.000	22468.000
997.000	22483.000
998.000	22714.000
999.000	22862.000
1000.000	22572.000
1001.000	22546.000
1002.000	22554.000
1003.000	22283.000
1004.000	22273.000
1005.000	22411.000
1006.000	22315.000
1007.000	22285.000
1008.000	22408.000
1009.000	22361.000
1010.000	22242.000
1011.000	22381.000
1012.000	22401.000
1013.000	22308.000
1014.000	22415.000
1015.000	22241.000
1016.000	22389.000
1017.000	22869.000
1018.000	22650.000
1019.000	22839.000
1020.000	22833.000
1021.000	22730.000
1022.000	23100.000
1023.000	23303.000
1024.000	23279.000
1025.000	23432.000
1026.000	23527.000
1027.000	23614.000
1028.000	23626.000
1029.000	23673.000
1030.000	23709.000
1031.000	23620.000
1032.000	23743.000
1033.000	23826.000
1034.000	23867.000
1035.000	23906.000
