Date:	17-Sep-20		Time:	7:47 PM		Version no:	0.00		Project name:	55		Sample name:	222		Section name:	section		Position	617.215018	mm	E0	0.000000	keV	E1	1.000000	keV/channel	sample surface	6.989498	cm	Tube anode:	Mo		Tube voltage:	30	kV	Tube current:	30	mA	gain	15		std. database			resultfile	result		matrix element	11		sample thickness	1.000000		air passage	0.560000	cm	comments	in position		peaking_time	0.300000	m-sec	trigger_threshold	40.000000	V	mca_bin_width	2.000000	no:	number_mca_channels	2048.000000	no:	gap_time	2048.000000	m-sec	trigger_peaking_time	2048.000000	m-sec	GAINDAC	400		HIGHGAIN	400		TAURC	400		RCTAU	400		RCTAUFRAC	400		livetime	13.499515	seconds	runtime	15.000344	seconds	input_count_rate	53614.148450	cps	output_count_rate	48249.891861	cps	triggers	790369	seconds	events_in_run	709059	seconds	channel	content		1.000	0.000
2.000	0.000
3.000	0.000
4.000	0.000
5.000	0.000
6.000	0.000
7.000	0.000
8.000	0.000
9.000	0.000
10.000	0.000
11.000	0.000
12.000	0.000
13.000	0.000
14.000	0.000
15.000	0.000
16.000	0.000
17.000	0.000
18.000	0.000
19.000	0.000
20.000	0.000
21.000	0.000
22.000	0.000
23.000	0.000
24.000	0.000
25.000	0.000
26.000	0.000
27.000	0.000
28.000	0.000
29.000	0.000
30.000	0.000
31.000	0.000
32.000	0.000
33.000	0.000
34.000	0.000
35.000	0.000
36.000	0.000
37.000	0.000
38.000	0.000
39.000	0.000
40.000	0.000
41.000	0.000
42.000	0.000
43.000	1.000
44.000	0.000
45.000	0.000
46.000	1.000
47.000	0.000
48.000	0.000
49.000	1.000
50.000	0.000
51.000	1.000
52.000	2.000
53.000	1.000
54.000	7.000
55.000	2.000
56.000	7.000
57.000	11.000
58.000	10.000
59.000	23.000
60.000	27.000
61.000	31.000
62.000	32.000
63.000	34.000
64.000	27.000
65.000	34.000
66.000	27.000
67.000	19.000
68.000	26.000
69.000	25.000
70.000	26.000
71.000	23.000
72.000	25.000
73.000	18.000
74.000	20.000
75.000	25.000
76.000	24.000
77.000	25.000
78.000	32.000
79.000	24.000
80.000	23.000
81.000	22.000
82.000	13.000
83.000	24.000
84.000	21.000
85.000	22.000
86.000	26.000
87.000	25.000
88.000	21.000
89.000	26.000
90.000	18.000
91.000	19.000
92.000	20.000
93.000	16.000
94.000	22.000
95.000	23.000
96.000	26.000
97.000	22.000
98.000	21.000
99.000	22.000
100.000	22.000
101.000	9.000
102.000	23.000
103.000	13.000
104.000	12.000
105.000	19.000
106.000	21.000
107.000	21.000
108.000	18.000
109.000	11.000
110.000	18.000
111.000	13.000
112.000	17.000
113.000	16.000
114.000	26.000
115.000	17.000
116.000	18.000
117.000	13.000
118.000	13.000
119.000	16.000
120.000	11.000
121.000	16.000
122.000	17.000
123.000	17.000
124.000	9.000
125.000	11.000
126.000	17.000
127.000	15.000
128.000	19.000
129.000	15.000
130.000	11.000
131.000	12.000
132.000	15.000
133.000	14.000
134.000	10.000
135.000	13.000
136.000	8.000
137.000	14.000
138.000	24.000
139.000	14.000
140.000	14.000
141.000	13.000
142.000	23.000
143.000	23.000
144.000	27.000
145.000	25.000
146.000	28.000
147.000	20.000
148.000	25.000
149.000	25.000
150.000	24.000
151.000	23.000
152.000	23.000
153.000	14.000
154.000	16.000
155.000	18.000
156.000	13.000
157.000	13.000
158.000	22.000
159.000	7.000
160.000	14.000
161.000	18.000
162.000	12.000
163.000	15.000
164.000	38.000
165.000	33.000
166.000	52.000
167.000	60.000
168.000	78.000
169.000	92.000
170.000	102.000
171.000	99.000
172.000	84.000
173.000	64.000
174.000	54.000
175.000	42.000
176.000	35.000
177.000	40.000
178.000	41.000
179.000	24.000
180.000	28.000
181.000	32.000
182.000	38.000
183.000	33.000
184.000	49.000
185.000	61.000
186.000	76.000
187.000	112.000
188.000	121.000
189.000	166.000
190.000	167.000
191.000	169.000
192.000	157.000
193.000	131.000
194.000	137.000
195.000	97.000
196.000	76.000
197.000	59.000
198.000	39.000
199.000	27.000
200.000	25.000
201.000	15.000
202.000	18.000
203.000	14.000
204.000	20.000
205.000	20.000
206.000	11.000
207.000	15.000
208.000	13.000
209.000	17.000
210.000	10.000
211.000	14.000
212.000	13.000
213.000	17.000
214.000	14.000
215.000	18.000
216.000	20.000
217.000	24.000
218.000	26.000
219.000	28.000
220.000	34.000
221.000	34.000
222.000	46.000
223.000	35.000
224.000	35.000
225.000	21.000
226.000	31.000
227.000	33.000
228.000	20.000
229.000	12.000
230.000	19.000
231.000	17.000
232.000	12.000
233.000	13.000
234.000	12.000
235.000	15.000
236.000	12.000
237.000	11.000
238.000	14.000
239.000	15.000
240.000	15.000
241.000	14.000
242.000	11.000
243.000	12.000
244.000	13.000
245.000	19.000
246.000	13.000
247.000	26.000
248.000	21.000
249.000	30.000
250.000	44.000
251.000	53.000
252.000	60.000
253.000	76.000
254.000	100.000
255.000	112.000
256.000	145.000
257.000	131.000
258.000	126.000
259.000	116.000
260.000	116.000
261.000	91.000
262.000	68.000
263.000	62.000
264.000	53.000
265.000	33.000
266.000	20.000
267.000	22.000
268.000	22.000
269.000	20.000
270.000	31.000
271.000	19.000
272.000	29.000
273.000	24.000
274.000	26.000
275.000	20.000
276.000	34.000
277.000	30.000
278.000	25.000
279.000	28.000
280.000	23.000
281.000	26.000
282.000	29.000
283.000	35.000
284.000	40.000
285.000	50.000
286.000	51.000
287.000	46.000
288.000	58.000
289.000	65.000
290.000	63.000
291.000	75.000
292.000	67.000
293.000	68.000
294.000	55.000
295.000	64.000
296.000	32.000
297.000	24.000
298.000	34.000
299.000	28.000
300.000	15.000
301.000	19.000
302.000	21.000
303.000	20.000
304.000	26.000
305.000	22.000
306.000	18.000
307.000	25.000
308.000	20.000
309.000	34.000
310.000	28.000
311.000	34.000
312.000	39.000
313.000	40.000
314.000	31.000
315.000	54.000
316.000	71.000
317.000	72.000
318.000	99.000
319.000	135.000
320.000	136.000
321.000	160.000
322.000	177.000
323.000	195.000
324.000	241.000
325.000	223.000
326.000	179.000
327.000	191.000
328.000	148.000
329.000	133.000
330.000	119.000
331.000	88.000
332.000	77.000
333.000	48.000
334.000	39.000
335.000	21.000
336.000	33.000
337.000	40.000
338.000	36.000
339.000	29.000
340.000	27.000
341.000	41.000
342.000	52.000
343.000	69.000
344.000	80.000
345.000	122.000
346.000	137.000
347.000	199.000
348.000	287.000
349.000	544.000
350.000	779.000
351.000	1233.000
352.000	1929.000
353.000	2718.000
354.000	3935.000
355.000	5279.000
356.000	6953.000
357.000	8715.000
358.000	10598.000
359.000	11869.000
360.000	13139.000
361.000	13487.000
362.000	13476.000
363.000	12682.000
364.000	11521.000
365.000	9977.000
366.000	8313.000
367.000	6398.000
368.000	4900.000
369.000	3416.000
370.000	2406.000
371.000	1617.000
372.000	1010.000
373.000	634.000
374.000	394.000
375.000	271.000
376.000	171.000
377.000	140.000
378.000	119.000
379.000	110.000
380.000	127.000
381.000	163.000
382.000	249.000
383.000	326.000
384.000	439.000
385.000	620.000
386.000	793.000
387.000	1000.000
388.000	1233.000
389.000	1396.000
390.000	1687.000
391.000	1796.000
392.000	1968.000
393.000	2003.000
394.000	1916.000
395.000	1773.000
396.000	1531.000
397.000	1412.000
398.000	1131.000
399.000	873.000
400.000	665.000
401.000	493.000
402.000	352.000
403.000	229.000
404.000	149.000
405.000	84.000
406.000	56.000
407.000	48.000
408.000	24.000
409.000	19.000
410.000	26.000
411.000	13.000
412.000	12.000
413.000	6.000
414.000	8.000
415.000	11.000
416.000	14.000
417.000	10.000
418.000	8.000
419.000	11.000
420.000	9.000
421.000	12.000
422.000	13.000
423.000	15.000
424.000	16.000
425.000	17.000
426.000	19.000
427.000	37.000
428.000	42.000
429.000	57.000
430.000	86.000
431.000	127.000
432.000	183.000
433.000	224.000
434.000	297.000
435.000	437.000
436.000	535.000
437.000	649.000
438.000	704.000
439.000	824.000
440.000	919.000
441.000	910.000
442.000	911.000
443.000	873.000
444.000	715.000
445.000	624.000
446.000	569.000
447.000	403.000
448.000	388.000
449.000	249.000
450.000	227.000
451.000	187.000
452.000	144.000
453.000	103.000
454.000	97.000
455.000	91.000
456.000	79.000
457.000	76.000
458.000	49.000
459.000	64.000
460.000	50.000
461.000	48.000
462.000	45.000
463.000	37.000
464.000	30.000
465.000	24.000
466.000	25.000
467.000	24.000
468.000	28.000
469.000	27.000
470.000	49.000
471.000	41.000
472.000	38.000
473.000	64.000
474.000	66.000
475.000	91.000
476.000	91.000
477.000	101.000
478.000	131.000
479.000	136.000
480.000	151.000
481.000	157.000
482.000	164.000
483.000	191.000
484.000	168.000
485.000	161.000
486.000	157.000
487.000	137.000
488.000	107.000
489.000	101.000
490.000	88.000
491.000	69.000
492.000	42.000
493.000	48.000
494.000	40.000
495.000	35.000
496.000	21.000
497.000	28.000
498.000	29.000
499.000	13.000
500.000	17.000
501.000	17.000
502.000	27.000
503.000	29.000
504.000	22.000
505.000	18.000
506.000	17.000
507.000	23.000
508.000	12.000
509.000	20.000
510.000	21.000
511.000	37.000
512.000	35.000
513.000	28.000
514.000	29.000
515.000	28.000
516.000	32.000
517.000	31.000
518.000	41.000
519.000	42.000
520.000	35.000
521.000	42.000
522.000	67.000
523.000	56.000
524.000	64.000
525.000	49.000
526.000	78.000
527.000	74.000
528.000	81.000
529.000	75.000
530.000	105.000
531.000	80.000
532.000	76.000
533.000	75.000
534.000	64.000
535.000	52.000
536.000	61.000
537.000	47.000
538.000	36.000
539.000	38.000
540.000	30.000
541.000	26.000
542.000	24.000
543.000	36.000
544.000	15.000
545.000	32.000
546.000	27.000
547.000	17.000
548.000	29.000
549.000	30.000
550.000	23.000
551.000	33.000
552.000	25.000
553.000	19.000
554.000	29.000
555.000	31.000
556.000	35.000
557.000	36.000
558.000	31.000
559.000	29.000
560.000	42.000
561.000	36.000
562.000	49.000
563.000	33.000
564.000	35.000
565.000	67.000
566.000	68.000
567.000	73.000
568.000	86.000
569.000	102.000
570.000	128.000
571.000	176.000
572.000	147.000
573.000	170.000
574.000	194.000
575.000	209.000
576.000	223.000
577.000	213.000
578.000	196.000
579.000	214.000
580.000	172.000
581.000	134.000
582.000	127.000
583.000	107.000
584.000	94.000
585.000	93.000
586.000	86.000
587.000	58.000
588.000	61.000
589.000	61.000
590.000	51.000
591.000	44.000
592.000	55.000
593.000	62.000
594.000	48.000
595.000	61.000
596.000	60.000
597.000	55.000
598.000	53.000
599.000	49.000
600.000	61.000
601.000	92.000
602.000	63.000
603.000	85.000
604.000	98.000
605.000	140.000
606.000	149.000
607.000	179.000
608.000	280.000
609.000	384.000
610.000	500.000
611.000	779.000
612.000	1090.000
613.000	1611.000
614.000	2194.000
615.000	3118.000
616.000	3950.000
617.000	5123.000
618.000	6579.000
619.000	8147.000
620.000	9581.000
621.000	10944.000
622.000	12338.000
623.000	13451.000
624.000	14017.000
625.000	14514.000
626.000	14437.000
627.000	13806.000
628.000	12963.000
629.000	11698.000
630.000	10272.000
631.000	9029.000
632.000	7269.000
633.000	6119.000
634.000	4749.000
635.000	3495.000
636.000	2639.000
637.000	1961.000
638.000	1369.000
639.000	974.000
640.000	621.000
641.000	466.000
642.000	358.000
643.000	213.000
644.000	152.000
645.000	134.000
646.000	107.000
647.000	94.000
648.000	65.000
649.000	81.000
650.000	82.000
651.000	64.000
652.000	62.000
653.000	71.000
654.000	60.000
655.000	91.000
656.000	74.000
657.000	68.000
658.000	81.000
659.000	82.000
660.000	69.000
661.000	72.000
662.000	79.000
663.000	67.000
664.000	90.000
665.000	89.000
666.000	106.000
667.000	115.000
668.000	108.000
669.000	131.000
670.000	105.000
671.000	169.000
672.000	200.000
673.000	202.000
674.000	263.000
675.000	271.000
676.000	355.000
677.000	458.000
678.000	587.000
679.000	694.000
680.000	852.000
681.000	1055.000
682.000	1249.000
683.000	1465.000
684.000	1649.000
685.000	1823.000
686.000	2031.000
687.000	2196.000
688.000	2328.000
689.000	2289.000
690.000	2319.000
691.000	2205.000
692.000	2141.000
693.000	1872.000
694.000	1643.000
695.000	1454.000
696.000	1219.000
697.000	1038.000
698.000	907.000
699.000	654.000
700.000	520.000
701.000	386.000
702.000	317.000
703.000	228.000
704.000	198.000
705.000	126.000
706.000	87.000
707.000	82.000
708.000	73.000
709.000	71.000
710.000	68.000
711.000	61.000
712.000	62.000
713.000	57.000
714.000	58.000
715.000	53.000
716.000	69.000
717.000	61.000
718.000	71.000
719.000	64.000
720.000	83.000
721.000	67.000
722.000	90.000
723.000	78.000
724.000	90.000
725.000	92.000
726.000	76.000
727.000	95.000
728.000	93.000
729.000	105.000
730.000	112.000
731.000	89.000
732.000	83.000
733.000	107.000
734.000	95.000
735.000	87.000
736.000	88.000
737.000	75.000
738.000	62.000
739.000	78.000
740.000	74.000
741.000	84.000
742.000	59.000
743.000	58.000
744.000	60.000
745.000	89.000
746.000	69.000
747.000	67.000
748.000	70.000
749.000	60.000
750.000	66.000
751.000	73.000
752.000	81.000
753.000	54.000
754.000	57.000
755.000	67.000
756.000	74.000
757.000	79.000
758.000	67.000
759.000	55.000
760.000	66.000
761.000	68.000
762.000	78.000
763.000	78.000
764.000	79.000
765.000	76.000
766.000	67.000
767.000	85.000
768.000	90.000
769.000	62.000
770.000	63.000
771.000	60.000
772.000	76.000
773.000	83.000
774.000	74.000
775.000	97.000
776.000	91.000
777.000	103.000
778.000	97.000
779.000	111.000
780.000	101.000
781.000	89.000
782.000	105.000
783.000	122.000
784.000	122.000
785.000	114.000
786.000	117.000
787.000	131.000
788.000	131.000
789.000	144.000
790.000	119.000
791.000	148.000
792.000	131.000
793.000	154.000
794.000	133.000
795.000	159.000
796.000	127.000
797.000	125.000
798.000	154.000
799.000	137.000
800.000	119.000
801.000	132.000
802.000	154.000
803.000	144.000
804.000	156.000
805.000	157.000
806.000	146.000
807.000	171.000
808.000	156.000
809.000	152.000
810.000	186.000
811.000	191.000
812.000	185.000
813.000	226.000
814.000	220.000
815.000	233.000
816.000	267.000
817.000	252.000
818.000	260.000
819.000	276.000
820.000	225.000
821.000	282.000
822.000	265.000
823.000	217.000
824.000	253.000
825.000	227.000
826.000	214.000
827.000	197.000
828.000	167.000
829.000	156.000
830.000	153.000
831.000	144.000
832.000	147.000
833.000	128.000
834.000	142.000
835.000	124.000
836.000	138.000
837.000	146.000
838.000	145.000
839.000	123.000
840.000	140.000
841.000	126.000
842.000	135.000
843.000	122.000
844.000	142.000
845.000	156.000
846.000	136.000
847.000	129.000
848.000	129.000
849.000	138.000
850.000	120.000
851.000	112.000
852.000	131.000
853.000	99.000
854.000	115.000
855.000	117.000
856.000	111.000
857.000	121.000
858.000	120.000
859.000	113.000
860.000	93.000
861.000	109.000
862.000	94.000
863.000	109.000
864.000	114.000
865.000	115.000
866.000	114.000
867.000	118.000
868.000	122.000
869.000	99.000
870.000	124.000
871.000	103.000
872.000	94.000
873.000	117.000
874.000	140.000
875.000	125.000
876.000	98.000
877.000	98.000
878.000	129.000
879.000	116.000
880.000	105.000
881.000	127.000
882.000	107.000
883.000	109.000
884.000	103.000
885.000	106.000
886.000	120.000
887.000	114.000
888.000	119.000
889.000	129.000
890.000	120.000
891.000	135.000
892.000	104.000
893.000	119.000
894.000	122.000
895.000	125.000
896.000	114.000
897.000	135.000
898.000	128.000
899.000	132.000
900.000	160.000
901.000	159.000
902.000	145.000
903.000	156.000
904.000	166.000
905.000	129.000
906.000	160.000
907.000	148.000
908.000	135.000
909.000	155.000
910.000	143.000
911.000	149.000
912.000	153.000
913.000	162.000
914.000	167.000
915.000	150.000
916.000	182.000
917.000	171.000
918.000	172.000
919.000	169.000
920.000	167.000
921.000	151.000
922.000	152.000
923.000	179.000
924.000	165.000
925.000	182.000
926.000	199.000
927.000	163.000
928.000	174.000
929.000	188.000
930.000	187.000
931.000	209.000
932.000	182.000
933.000	188.000
934.000	216.000
935.000	200.000
936.000	205.000
937.000	215.000
938.000	212.000
939.000	249.000
940.000	241.000
941.000	248.000
942.000	227.000
943.000	217.000
944.000	250.000
945.000	238.000
946.000	240.000
947.000	228.000
948.000	254.000
949.000	216.000
950.000	226.000
951.000	214.000
952.000	215.000
953.000	198.000
954.000	191.000
955.000	172.000
956.000	194.000
957.000	164.000
958.000	171.000
959.000	169.000
960.000	183.000
961.000	167.000
962.000	168.000
963.000	180.000
964.000	164.000
965.000	154.000
966.000	178.000
967.000	161.000
968.000	185.000
969.000	186.000
970.000	190.000
971.000	159.000
972.000	198.000
973.000	201.000
974.000	195.000
975.000	180.000
976.000	177.000
977.000	181.000
978.000	170.000
979.000	149.000
980.000	186.000
981.000	158.000
982.000	152.000
983.000	172.000
984.000	147.000
985.000	146.000
986.000	182.000
987.000	144.000
988.000	153.000
989.000	156.000
990.000	152.000
991.000	133.000
992.000	150.000
993.000	149.000
994.000	147.000
995.000	108.000
996.000	133.000
997.000	122.000
998.000	113.000
999.000	138.000
1000.000	126.000
1001.000	138.000
1002.000	141.000
1003.000	130.000
1004.000	130.000
1005.000	142.000
1006.000	120.000
1007.000	131.000
1008.000	127.000
1009.000	136.000
1010.000	122.000
1011.000	142.000
1012.000	108.000
1013.000	124.000
1014.000	130.000
1015.000	132.000
1016.000	129.000
1017.000	157.000
1018.000	134.000
1019.000	122.000
1020.000	142.000
1021.000	122.000
1022.000	132.000
1023.000	153.000
1024.000	137.000
1025.000	134.000
1026.000	144.000
1027.000	143.000
1028.000	129.000
1029.000	132.000
1030.000	143.000
1031.000	141.000
1032.000	129.000
1033.000	138.000
1034.000	118.000
1035.000	143.000
1036.000	154.000
1037.000	143.000
1038.000	142.000
1039.000	124.000
1040.000	138.000
1041.000	135.000
1042.000	118.000
1043.000	163.000
1044.000	149.000
1045.000	143.000
1046.000	131.000
1047.000	150.000
1048.000	139.000
1049.000	165.000
1050.000	148.000
1051.000	123.000
1052.000	154.000
1053.000	132.000
1054.000	170.000
1055.000	153.000
1056.000	145.000
1057.000	150.000
1058.000	161.000
1059.000	146.000
1060.000	141.000
1061.000	148.000
1062.000	159.000
1063.000	155.000
1064.000	152.000
1065.000	149.000
1066.000	134.000
1067.000	155.000
1068.000	160.000
1069.000	153.000
1070.000	136.000
1071.000	159.000
1072.000	151.000
1073.000	132.000
1074.000	141.000
1075.000	151.000
1076.000	137.000
1077.000	145.000
1078.000	145.000
1079.000	146.000
1080.000	141.000
1081.000	150.000
1082.000	161.000
1083.000	156.000
1084.000	142.000
1085.000	193.000
1086.000	157.000
1087.000	139.000
1088.000	188.000
1089.000	146.000
1090.000	141.000
1091.000	140.000
1092.000	149.000
1093.000	161.000
1094.000	167.000
1095.000	175.000
1096.000	186.000
1097.000	144.000
1098.000	157.000
1099.000	163.000
1100.000	177.000
1101.000	160.000
1102.000	154.000
1103.000	174.000
1104.000	181.000
1105.000	146.000
1106.000	173.000
1107.000	163.000
1108.000	168.000
1109.000	157.000
1110.000	167.000
1111.000	149.000
1112.000	157.000
1113.000	163.000
1114.000	136.000
1115.000	143.000
1116.000	167.000
1117.000	154.000
1118.000	154.000
1119.000	172.000
1120.000	126.000
1121.000	154.000
1122.000	146.000
1123.000	128.000
1124.000	141.000
1125.000	158.000
1126.000	182.000
1127.000	162.000
1128.000	137.000
1129.000	136.000
1130.000	167.000
1131.000	158.000
1132.000	150.000
1133.000	154.000
1134.000	164.000
1135.000	170.000
1136.000	159.000
1137.000	170.000
1138.000	157.000
1139.000	174.000
1140.000	147.000
1141.000	129.000
1142.000	141.000
1143.000	191.000
1144.000	190.000
1145.000	152.000
1146.000	150.000
1147.000	152.000
1148.000	185.000
1149.000	134.000
1150.000	154.000
1151.000	189.000
1152.000	169.000
1153.000	181.000
