Date:	17-Sep-20		Time:	5:20 PM		Version no:	0.00		Project name:	55		Sample name:	222		Section name:	section		Position	65.215018	mm	E0	0.000000	keV	E1	1.000000	keV/channel	sample surface	6.890744	cm	Tube anode:	Mo		Tube voltage:	30	kV	Tube current:	30	mA	gain	15		std. database			resultfile	result		matrix element	11		sample thickness	1.000000		air passage	0.560000	cm	comments	in position		peaking_time	0.300000	m-sec	trigger_threshold	40.000000	V	mca_bin_width	2.000000	no:	number_mca_channels	2048.000000	no:	gap_time	2048.000000	m-sec	trigger_peaking_time	2048.000000	m-sec	GAINDAC	400		HIGHGAIN	400		TAURC	400		RCTAU	400		RCTAUFRAC	400		livetime	13.324302	seconds	runtime	15.000217	seconds	input_count_rate	47115.039889	cps	output_count_rate	41851.059826	cps	triggers	694540	seconds	events_in_run	610370	seconds	channel	content		1.000	0.000
2.000	0.000
3.000	0.000
4.000	0.000
5.000	0.000
6.000	0.000
7.000	0.000
8.000	0.000
9.000	0.000
10.000	0.000
11.000	0.000
12.000	0.000
13.000	0.000
14.000	0.000
15.000	0.000
16.000	0.000
17.000	0.000
18.000	0.000
19.000	0.000
20.000	0.000
21.000	0.000
22.000	0.000
23.000	0.000
24.000	0.000
25.000	0.000
26.000	0.000
27.000	0.000
28.000	0.000
29.000	0.000
30.000	0.000
31.000	1.000
32.000	0.000
33.000	0.000
34.000	1.000
35.000	0.000
36.000	1.000
37.000	0.000
38.000	0.000
39.000	0.000
40.000	0.000
41.000	0.000
42.000	0.000
43.000	1.000
44.000	0.000
45.000	1.000
46.000	0.000
47.000	1.000
48.000	0.000
49.000	0.000
50.000	0.000
51.000	1.000
52.000	1.000
53.000	3.000
54.000	4.000
55.000	3.000
56.000	6.000
57.000	7.000
58.000	15.000
59.000	14.000
60.000	23.000
61.000	22.000
62.000	26.000
63.000	31.000
64.000	42.000
65.000	34.000
66.000	34.000
67.000	29.000
68.000	33.000
69.000	29.000
70.000	40.000
71.000	26.000
72.000	31.000
73.000	30.000
74.000	28.000
75.000	27.000
76.000	24.000
77.000	25.000
78.000	26.000
79.000	20.000
80.000	26.000
81.000	31.000
82.000	28.000
83.000	18.000
84.000	27.000
85.000	23.000
86.000	23.000
87.000	25.000
88.000	32.000
89.000	30.000
90.000	16.000
91.000	35.000
92.000	25.000
93.000	25.000
94.000	23.000
95.000	27.000
96.000	18.000
97.000	20.000
98.000	25.000
99.000	23.000
100.000	22.000
101.000	21.000
102.000	26.000
103.000	15.000
104.000	20.000
105.000	26.000
106.000	18.000
107.000	19.000
108.000	31.000
109.000	22.000
110.000	16.000
111.000	17.000
112.000	20.000
113.000	13.000
114.000	16.000
115.000	12.000
116.000	20.000
117.000	24.000
118.000	13.000
119.000	18.000
120.000	24.000
121.000	22.000
122.000	9.000
123.000	17.000
124.000	15.000
125.000	25.000
126.000	19.000
127.000	20.000
128.000	14.000
129.000	15.000
130.000	9.000
131.000	12.000
132.000	14.000
133.000	12.000
134.000	10.000
135.000	12.000
136.000	8.000
137.000	13.000
138.000	12.000
139.000	20.000
140.000	17.000
141.000	14.000
142.000	23.000
143.000	26.000
144.000	23.000
145.000	30.000
146.000	37.000
147.000	25.000
148.000	27.000
149.000	18.000
150.000	28.000
151.000	24.000
152.000	27.000
153.000	23.000
154.000	20.000
155.000	22.000
156.000	23.000
157.000	23.000
158.000	17.000
159.000	20.000
160.000	23.000
161.000	17.000
162.000	27.000
163.000	24.000
164.000	27.000
165.000	45.000
166.000	64.000
167.000	112.000
168.000	106.000
169.000	114.000
170.000	138.000
171.000	141.000
172.000	127.000
173.000	131.000
174.000	100.000
175.000	84.000
176.000	66.000
177.000	50.000
178.000	34.000
179.000	26.000
180.000	28.000
181.000	27.000
182.000	30.000
183.000	23.000
184.000	32.000
185.000	33.000
186.000	30.000
187.000	54.000
188.000	53.000
189.000	68.000
190.000	70.000
191.000	82.000
192.000	57.000
193.000	59.000
194.000	47.000
195.000	55.000
196.000	34.000
197.000	24.000
198.000	21.000
199.000	21.000
200.000	13.000
201.000	11.000
202.000	12.000
203.000	16.000
204.000	12.000
205.000	14.000
206.000	17.000
207.000	9.000
208.000	8.000
209.000	20.000
210.000	12.000
211.000	15.000
212.000	14.000
213.000	7.000
214.000	8.000
215.000	18.000
216.000	11.000
217.000	15.000
218.000	10.000
219.000	18.000
220.000	20.000
221.000	20.000
222.000	21.000
223.000	24.000
224.000	18.000
225.000	21.000
226.000	11.000
227.000	19.000
228.000	22.000
229.000	11.000
230.000	11.000
231.000	15.000
232.000	8.000
233.000	11.000
234.000	12.000
235.000	7.000
236.000	11.000
237.000	15.000
238.000	6.000
239.000	8.000
240.000	18.000
241.000	12.000
242.000	9.000
243.000	16.000
244.000	16.000
245.000	12.000
246.000	12.000
247.000	17.000
248.000	19.000
249.000	25.000
250.000	31.000
251.000	42.000
252.000	46.000
253.000	59.000
254.000	77.000
255.000	74.000
256.000	87.000
257.000	77.000
258.000	85.000
259.000	88.000
260.000	69.000
261.000	51.000
262.000	43.000
263.000	44.000
264.000	31.000
265.000	26.000
266.000	22.000
267.000	17.000
268.000	22.000
269.000	17.000
270.000	21.000
271.000	26.000
272.000	30.000
273.000	17.000
274.000	22.000
275.000	23.000
276.000	16.000
277.000	20.000
278.000	23.000
279.000	16.000
280.000	16.000
281.000	18.000
282.000	17.000
283.000	27.000
284.000	17.000
285.000	36.000
286.000	41.000
287.000	59.000
288.000	51.000
289.000	67.000
290.000	59.000
291.000	49.000
292.000	45.000
293.000	50.000
294.000	49.000
295.000	36.000
296.000	25.000
297.000	18.000
298.000	26.000
299.000	13.000
300.000	14.000
301.000	17.000
302.000	15.000
303.000	12.000
304.000	21.000
305.000	15.000
306.000	17.000
307.000	12.000
308.000	22.000
309.000	25.000
310.000	19.000
311.000	20.000
312.000	33.000
313.000	45.000
314.000	70.000
315.000	95.000
316.000	159.000
317.000	217.000
318.000	283.000
319.000	403.000
320.000	487.000
321.000	578.000
322.000	728.000
323.000	788.000
324.000	839.000
325.000	830.000
326.000	794.000
327.000	748.000
328.000	629.000
329.000	550.000
330.000	412.000
331.000	328.000
332.000	212.000
333.000	126.000
334.000	97.000
335.000	67.000
336.000	58.000
337.000	39.000
338.000	20.000
339.000	26.000
340.000	32.000
341.000	39.000
342.000	54.000
343.000	41.000
344.000	52.000
345.000	66.000
346.000	128.000
347.000	157.000
348.000	237.000
349.000	298.000
350.000	448.000
351.000	596.000
352.000	871.000
353.000	1235.000
354.000	1603.000
355.000	2284.000
356.000	2895.000
357.000	3583.000
358.000	4218.000
359.000	4885.000
360.000	5249.000
361.000	5451.000
362.000	5445.000
363.000	5203.000
364.000	4664.000
365.000	3958.000
366.000	3291.000
367.000	2599.000
368.000	1927.000
369.000	1428.000
370.000	1013.000
371.000	636.000
372.000	400.000
373.000	266.000
374.000	162.000
375.000	87.000
376.000	71.000
377.000	58.000
378.000	46.000
379.000	47.000
380.000	70.000
381.000	84.000
382.000	119.000
383.000	130.000
384.000	194.000
385.000	279.000
386.000	321.000
387.000	427.000
388.000	492.000
389.000	603.000
390.000	727.000
391.000	796.000
392.000	808.000
393.000	787.000
394.000	771.000
395.000	791.000
396.000	627.000
397.000	582.000
398.000	430.000
399.000	380.000
400.000	308.000
401.000	177.000
402.000	136.000
403.000	99.000
404.000	74.000
405.000	43.000
406.000	26.000
407.000	19.000
408.000	12.000
409.000	13.000
410.000	8.000
411.000	6.000
412.000	16.000
413.000	10.000
414.000	11.000
415.000	12.000
416.000	10.000
417.000	13.000
418.000	9.000
419.000	7.000
420.000	12.000
421.000	11.000
422.000	6.000
423.000	11.000
424.000	13.000
425.000	14.000
426.000	16.000
427.000	26.000
428.000	38.000
429.000	66.000
430.000	79.000
431.000	133.000
432.000	165.000
433.000	247.000
434.000	316.000
435.000	410.000
436.000	552.000
437.000	624.000
438.000	709.000
439.000	799.000
440.000	817.000
441.000	818.000
442.000	826.000
443.000	804.000
444.000	717.000
445.000	618.000
446.000	544.000
447.000	433.000
448.000	363.000
449.000	289.000
450.000	225.000
451.000	142.000
452.000	124.000
453.000	111.000
454.000	81.000
455.000	82.000
456.000	77.000
457.000	88.000
458.000	49.000
459.000	54.000
460.000	52.000
461.000	47.000
462.000	51.000
463.000	33.000
464.000	26.000
465.000	35.000
466.000	27.000
467.000	31.000
468.000	31.000
469.000	40.000
470.000	37.000
471.000	45.000
472.000	59.000
473.000	68.000
474.000	81.000
475.000	77.000
476.000	85.000
477.000	112.000
478.000	131.000
479.000	142.000
480.000	151.000
481.000	157.000
482.000	173.000
483.000	164.000
484.000	146.000
485.000	140.000
486.000	137.000
487.000	122.000
488.000	104.000
489.000	92.000
490.000	80.000
491.000	51.000
492.000	62.000
493.000	28.000
494.000	43.000
495.000	34.000
496.000	32.000
497.000	35.000
498.000	35.000
499.000	21.000
500.000	31.000
501.000	27.000
502.000	23.000
503.000	20.000
504.000	34.000
505.000	26.000
506.000	30.000
507.000	38.000
508.000	44.000
509.000	25.000
510.000	34.000
511.000	37.000
512.000	36.000
513.000	39.000
514.000	38.000
515.000	34.000
516.000	40.000
517.000	50.000
518.000	45.000
519.000	47.000
520.000	38.000
521.000	42.000
522.000	51.000
523.000	46.000
524.000	50.000
525.000	55.000
526.000	63.000
527.000	54.000
528.000	69.000
529.000	71.000
530.000	72.000
531.000	61.000
532.000	55.000
533.000	67.000
534.000	46.000
535.000	49.000
536.000	53.000
537.000	51.000
538.000	44.000
539.000	35.000
540.000	27.000
541.000	33.000
542.000	30.000
543.000	33.000
544.000	26.000
545.000	31.000
546.000	27.000
547.000	27.000
548.000	23.000
549.000	35.000
550.000	34.000
551.000	33.000
552.000	37.000
553.000	27.000
554.000	36.000
555.000	39.000
556.000	26.000
557.000	44.000
558.000	37.000
559.000	34.000
560.000	33.000
561.000	50.000
562.000	43.000
563.000	57.000
564.000	67.000
565.000	79.000
566.000	92.000
567.000	121.000
568.000	150.000
569.000	188.000
570.000	208.000
571.000	258.000
572.000	293.000
573.000	319.000
574.000	358.000
575.000	366.000
576.000	375.000
577.000	397.000
578.000	367.000
579.000	376.000
580.000	345.000
581.000	251.000
582.000	236.000
583.000	195.000
584.000	163.000
585.000	140.000
586.000	135.000
587.000	107.000
588.000	73.000
589.000	82.000
590.000	77.000
591.000	41.000
592.000	52.000
593.000	52.000
594.000	48.000
595.000	54.000
596.000	73.000
597.000	63.000
598.000	66.000
599.000	56.000
600.000	57.000
601.000	59.000
602.000	71.000
603.000	71.000
604.000	100.000
605.000	101.000
606.000	137.000
607.000	162.000
608.000	234.000
609.000	340.000
610.000	447.000
611.000	702.000
612.000	986.000
613.000	1301.000
614.000	1927.000
615.000	2578.000
616.000	3391.000
617.000	4416.000
618.000	5451.000
619.000	6776.000
620.000	8003.000
621.000	9236.000
622.000	10343.000
623.000	11248.000
624.000	11893.000
625.000	12425.000
626.000	12115.000
627.000	11674.000
628.000	10998.000
629.000	9725.000
630.000	8766.000
631.000	7452.000
632.000	6290.000
633.000	4998.000
634.000	3968.000
635.000	3065.000
636.000	2174.000
637.000	1639.000
638.000	1207.000
639.000	901.000
640.000	579.000
641.000	367.000
642.000	292.000
643.000	187.000
644.000	139.000
645.000	118.000
646.000	104.000
647.000	83.000
648.000	80.000
649.000	81.000
650.000	77.000
651.000	82.000
652.000	76.000
653.000	67.000
654.000	70.000
655.000	66.000
656.000	64.000
657.000	73.000
658.000	86.000
659.000	82.000
660.000	78.000
661.000	85.000
662.000	72.000
663.000	79.000
664.000	93.000
665.000	111.000
666.000	114.000
667.000	85.000
668.000	94.000
669.000	107.000
670.000	98.000
671.000	135.000
672.000	156.000
673.000	176.000
674.000	217.000
675.000	229.000
676.000	306.000
677.000	386.000
678.000	460.000
679.000	601.000
680.000	714.000
681.000	879.000
682.000	1013.000
683.000	1252.000
684.000	1414.000
685.000	1560.000
686.000	1762.000
687.000	1777.000
688.000	1920.000
689.000	1952.000
690.000	1968.000
691.000	1976.000
692.000	1740.000
693.000	1646.000
694.000	1403.000
695.000	1214.000
696.000	1116.000
697.000	960.000
698.000	797.000
699.000	610.000
700.000	446.000
701.000	391.000
702.000	303.000
703.000	202.000
704.000	180.000
705.000	118.000
706.000	117.000
707.000	106.000
708.000	84.000
709.000	66.000
710.000	49.000
711.000	63.000
712.000	75.000
713.000	56.000
714.000	72.000
715.000	55.000
716.000	61.000
717.000	56.000
718.000	73.000
719.000	88.000
720.000	80.000
721.000	87.000
722.000	79.000
723.000	82.000
724.000	108.000
725.000	90.000
726.000	103.000
727.000	110.000
728.000	101.000
729.000	117.000
730.000	94.000
731.000	89.000
732.000	90.000
733.000	89.000
734.000	82.000
735.000	76.000
736.000	83.000
737.000	95.000
738.000	94.000
739.000	87.000
740.000	89.000
741.000	76.000
742.000	97.000
743.000	68.000
744.000	66.000
745.000	78.000
746.000	73.000
747.000	82.000
748.000	82.000
749.000	75.000
750.000	76.000
751.000	74.000
752.000	67.000
753.000	93.000
754.000	80.000
755.000	75.000
756.000	87.000
757.000	94.000
758.000	79.000
759.000	76.000
760.000	83.000
761.000	71.000
762.000	87.000
763.000	79.000
764.000	92.000
765.000	105.000
766.000	101.000
767.000	76.000
768.000	81.000
769.000	113.000
770.000	78.000
771.000	88.000
772.000	72.000
773.000	95.000
774.000	90.000
775.000	100.000
776.000	110.000
777.000	106.000
778.000	86.000
779.000	121.000
780.000	118.000
781.000	112.000
782.000	116.000
783.000	139.000
784.000	127.000
785.000	146.000
786.000	144.000
787.000	145.000
788.000	137.000
789.000	126.000
790.000	145.000
791.000	153.000
792.000	161.000
793.000	144.000
794.000	163.000
795.000	142.000
796.000	144.000
797.000	159.000
798.000	149.000
799.000	186.000
800.000	166.000
801.000	166.000
802.000	169.000
803.000	187.000
804.000	186.000
805.000	165.000
806.000	199.000
807.000	189.000
808.000	182.000
809.000	187.000
810.000	248.000
811.000	210.000
812.000	256.000
813.000	247.000
814.000	275.000
815.000	267.000
816.000	298.000
817.000	310.000
818.000	301.000
819.000	304.000
820.000	305.000
821.000	284.000
822.000	307.000
823.000	271.000
824.000	294.000
825.000	265.000
826.000	217.000
827.000	210.000
828.000	184.000
829.000	200.000
830.000	191.000
831.000	166.000
832.000	174.000
833.000	161.000
834.000	146.000
835.000	148.000
836.000	161.000
837.000	186.000
838.000	158.000
839.000	176.000
840.000	161.000
841.000	176.000
842.000	173.000
843.000	187.000
844.000	167.000
845.000	165.000
846.000	151.000
847.000	153.000
848.000	160.000
849.000	152.000
850.000	114.000
851.000	131.000
852.000	148.000
853.000	151.000
854.000	130.000
855.000	110.000
856.000	128.000
857.000	138.000
858.000	108.000
859.000	134.000
860.000	117.000
861.000	129.000
862.000	147.000
863.000	127.000
864.000	112.000
865.000	125.000
866.000	145.000
867.000	137.000
868.000	125.000
869.000	119.000
870.000	143.000
871.000	129.000
872.000	130.000
873.000	126.000
874.000	125.000
875.000	137.000
876.000	130.000
877.000	138.000
878.000	120.000
879.000	148.000
880.000	127.000
881.000	155.000
882.000	124.000
883.000	125.000
884.000	142.000
885.000	139.000
886.000	152.000
887.000	144.000
888.000	150.000
889.000	154.000
890.000	148.000
891.000	146.000
892.000	137.000
893.000	155.000
894.000	167.000
895.000	161.000
896.000	172.000
897.000	162.000
898.000	160.000
899.000	182.000
900.000	198.000
901.000	164.000
902.000	160.000
903.000	174.000
904.000	173.000
905.000	202.000
906.000	204.000
907.000	186.000
908.000	184.000
909.000	177.000
910.000	182.000
911.000	226.000
912.000	212.000
913.000	195.000
914.000	174.000
915.000	200.000
916.000	192.000
917.000	205.000
918.000	201.000
919.000	183.000
920.000	196.000
921.000	196.000
922.000	198.000
923.000	206.000
924.000	217.000
925.000	228.000
926.000	185.000
927.000	210.000
928.000	203.000
929.000	226.000
930.000	221.000
931.000	210.000
932.000	220.000
933.000	234.000
934.000	281.000
935.000	231.000
936.000	230.000
937.000	246.000
938.000	239.000
939.000	260.000
940.000	274.000
941.000	305.000
942.000	310.000
943.000	297.000
944.000	302.000
945.000	268.000
946.000	288.000
947.000	268.000
948.000	297.000
949.000	275.000
950.000	243.000
951.000	242.000
952.000	204.000
953.000	238.000
954.000	253.000
955.000	212.000
956.000	198.000
957.000	219.000
958.000	182.000
959.000	176.000
960.000	204.000
961.000	185.000
962.000	193.000
963.000	215.000
964.000	173.000
965.000	205.000
966.000	192.000
967.000	210.000
968.000	203.000
969.000	187.000
970.000	180.000
971.000	225.000
972.000	181.000
973.000	212.000
974.000	218.000
975.000	181.000
976.000	191.000
977.000	177.000
978.000	167.000
979.000	165.000
980.000	187.000
981.000	176.000
982.000	174.000
983.000	195.000
984.000	161.000
985.000	161.000
986.000	161.000
987.000	147.000
988.000	143.000
989.000	133.000
990.000	146.000
991.000	156.000
992.000	155.000
993.000	133.000
994.000	147.000
995.000	144.000
996.000	152.000
997.000	136.000
998.000	134.000
999.000	162.000
1000.000	150.000
1001.000	146.000
1002.000	138.000
1003.000	149.000
1004.000	139.000
1005.000	141.000
1006.000	149.000
1007.000	162.000
1008.000	125.000
1009.000	143.000
1010.000	194.000
1011.000	161.000
1012.000	144.000
1013.000	171.000
1014.000	130.000
1015.000	136.000
1016.000	153.000
1017.000	130.000
1018.000	158.000
1019.000	160.000
1020.000	172.000
1021.000	188.000
1022.000	155.000
1023.000	158.000
1024.000	144.000
1025.000	140.000
1026.000	142.000
1027.000	142.000
1028.000	157.000
1029.000	178.000
1030.000	164.000
1031.000	182.000
1032.000	157.000
1033.000	156.000
1034.000	154.000
1035.000	154.000
1036.000	176.000
1037.000	181.000
1038.000	167.000
1039.000	155.000
1040.000	149.000
1041.000	145.000
1042.000	135.000
1043.000	177.000
1044.000	172.000
1045.000	155.000
1046.000	142.000
1047.000	139.000
1048.000	144.000
1049.000	179.000
1050.000	183.000
1051.000	169.000
1052.000	184.000
1053.000	167.000
1054.000	172.000
1055.000	160.000
1056.000	164.000
1057.000	170.000
1058.000	171.000
1059.000	154.000
1060.000	174.000
1061.000	183.000
1062.000	184.000
1063.000	177.000
1064.000	174.000
1065.000	169.000
1066.000	153.000
1067.000	184.000
1068.000	188.000
1069.000	175.000
1070.000	143.000
1071.000	165.000
1072.000	178.000
1073.000	177.000
1074.000	134.000
1075.000	182.000
1076.000	189.000
1077.000	188.000
1078.000	153.000
1079.000	173.000
1080.000	170.000
1081.000	176.000
1082.000	171.000
1083.000	179.000
1084.000	171.000
1085.000	181.000
1086.000	166.000
1087.000	174.000
1088.000	176.000
1089.000	172.000
1090.000	185.000
1091.000	180.000
1092.000	185.000
1093.000	186.000
1094.000	173.000
1095.000	199.000
1096.000	183.000
1097.000	180.000
1098.000	206.000
1099.000	189.000
1100.000	198.000
1101.000	151.000
1102.000	227.000
1103.000	197.000
1104.000	206.000
1105.000	207.000
1106.000	195.000
1107.000	184.000
1108.000	182.000
1109.000	181.000
1110.000	199.000
1111.000	173.000
1112.000	169.000
1113.000	188.000
1114.000	180.000
1115.000	169.000
1116.000	170.000
1117.000	187.000
1118.000	170.000
1119.000	150.000
1120.000	166.000
1121.000	175.000
1122.000	184.000
1123.000	190.000
1124.000	190.000
1125.000	185.000
1126.000	171.000
1127.000	168.000
1128.000	177.000
1129.000	173.000
1130.000	167.000
1131.000	157.000
1132.000	175.000
1133.000	183.000
1134.000	164.000
1135.000	192.000
1136.000	178.000
1137.000	170.000
1138.000	178.000
1139.000	176.000
1140.000	153.000
1141.000	165.000
1142.000	191.000
1143.000	197.000
1144.000	207.000
1145.000	173.000
1146.000	188.000
1147.000	192.000
1148.000	191.000
1149.000	169.000
1150.000	186.000
1151.000	167.000
1152.000	204.000
1153.000	203.000
1154.000	188.000
1155.000	197.000
