Date:	17-Sep-20		Time:	6:31 PM		Version no:	0.00		Project name:	55		Sample name:	222		Section name:	section		Position	329.215018	mm	E0	0.000000	keV	E1	1.000000	keV/channel	sample surface	6.800403	cm	Tube anode:	Mo		Tube voltage:	30	kV	Tube current:	30	mA	gain	15		std. database			resultfile	result		matrix element	11		sample thickness	1.000000		air passage	0.560000	cm	comments	in position		peaking_time	0.300000	m-sec	trigger_threshold	40.000000	V	mca_bin_width	2.000000	no:	number_mca_channels	2048.000000	no:	gap_time	2048.000000	m-sec	trigger_peaking_time	2048.000000	m-sec	GAINDAC	400		HIGHGAIN	400		TAURC	400		RCTAU	400		RCTAUFRAC	400		livetime	13.477204	seconds	runtime	15.000008	seconds	input_count_rate	49800.834830	cps	output_count_rate	44745.041311	cps	triggers	734572	seconds	events_in_run	656903	seconds	channel	content		1.000	0.000
2.000	0.000
3.000	0.000
4.000	0.000
5.000	0.000
6.000	0.000
7.000	0.000
8.000	0.000
9.000	0.000
10.000	0.000
11.000	0.000
12.000	0.000
13.000	0.000
14.000	0.000
15.000	0.000
16.000	0.000
17.000	0.000
18.000	0.000
19.000	0.000
20.000	0.000
21.000	0.000
22.000	0.000
23.000	0.000
24.000	0.000
25.000	0.000
26.000	0.000
27.000	0.000
28.000	0.000
29.000	0.000
30.000	0.000
31.000	0.000
32.000	0.000
33.000	0.000
34.000	0.000
35.000	1.000
36.000	0.000
37.000	1.000
38.000	1.000
39.000	0.000
40.000	1.000
41.000	0.000
42.000	0.000
43.000	0.000
44.000	0.000
45.000	0.000
46.000	2.000
47.000	1.000
48.000	0.000
49.000	1.000
50.000	2.000
51.000	0.000
52.000	0.000
53.000	3.000
54.000	2.000
55.000	3.000
56.000	6.000
57.000	8.000
58.000	8.000
59.000	25.000
60.000	16.000
61.000	28.000
62.000	36.000
63.000	25.000
64.000	28.000
65.000	28.000
66.000	17.000
67.000	35.000
68.000	21.000
69.000	12.000
70.000	9.000
71.000	29.000
72.000	22.000
73.000	20.000
74.000	19.000
75.000	19.000
76.000	14.000
77.000	22.000
78.000	20.000
79.000	27.000
80.000	17.000
81.000	22.000
82.000	22.000
83.000	24.000
84.000	20.000
85.000	19.000
86.000	18.000
87.000	15.000
88.000	16.000
89.000	19.000
90.000	25.000
91.000	21.000
92.000	27.000
93.000	12.000
94.000	21.000
95.000	16.000
96.000	12.000
97.000	20.000
98.000	14.000
99.000	19.000
100.000	13.000
101.000	16.000
102.000	17.000
103.000	29.000
104.000	21.000
105.000	17.000
106.000	16.000
107.000	20.000
108.000	18.000
109.000	17.000
110.000	16.000
111.000	14.000
112.000	22.000
113.000	15.000
114.000	21.000
115.000	14.000
116.000	11.000
117.000	17.000
118.000	16.000
119.000	20.000
120.000	21.000
121.000	20.000
122.000	15.000
123.000	27.000
124.000	20.000
125.000	19.000
126.000	5.000
127.000	8.000
128.000	17.000
129.000	19.000
130.000	11.000
131.000	13.000
132.000	11.000
133.000	12.000
134.000	13.000
135.000	6.000
136.000	15.000
137.000	21.000
138.000	12.000
139.000	18.000
140.000	22.000
141.000	23.000
142.000	14.000
143.000	17.000
144.000	37.000
145.000	39.000
146.000	34.000
147.000	41.000
148.000	29.000
149.000	27.000
150.000	26.000
151.000	23.000
152.000	28.000
153.000	23.000
154.000	37.000
155.000	26.000
156.000	13.000
157.000	18.000
158.000	14.000
159.000	11.000
160.000	12.000
161.000	17.000
162.000	12.000
163.000	27.000
164.000	32.000
165.000	55.000
166.000	67.000
167.000	93.000
168.000	106.000
169.000	126.000
170.000	149.000
171.000	125.000
172.000	138.000
173.000	100.000
174.000	102.000
175.000	71.000
176.000	72.000
177.000	44.000
178.000	47.000
179.000	27.000
180.000	26.000
181.000	40.000
182.000	34.000
183.000	29.000
184.000	35.000
185.000	47.000
186.000	52.000
187.000	66.000
188.000	83.000
189.000	90.000
190.000	108.000
191.000	114.000
192.000	118.000
193.000	94.000
194.000	85.000
195.000	75.000
196.000	54.000
197.000	40.000
198.000	25.000
199.000	22.000
200.000	14.000
201.000	15.000
202.000	14.000
203.000	10.000
204.000	13.000
205.000	16.000
206.000	14.000
207.000	15.000
208.000	12.000
209.000	18.000
210.000	12.000
211.000	13.000
212.000	8.000
213.000	14.000
214.000	11.000
215.000	12.000
216.000	15.000
217.000	15.000
218.000	19.000
219.000	18.000
220.000	18.000
221.000	22.000
222.000	26.000
223.000	23.000
224.000	21.000
225.000	19.000
226.000	19.000
227.000	24.000
228.000	10.000
229.000	15.000
230.000	10.000
231.000	12.000
232.000	7.000
233.000	14.000
234.000	7.000
235.000	14.000
236.000	11.000
237.000	10.000
238.000	9.000
239.000	5.000
240.000	9.000
241.000	7.000
242.000	11.000
243.000	8.000
244.000	16.000
245.000	19.000
246.000	7.000
247.000	14.000
248.000	13.000
249.000	14.000
250.000	27.000
251.000	26.000
252.000	41.000
253.000	50.000
254.000	63.000
255.000	54.000
256.000	47.000
257.000	51.000
258.000	72.000
259.000	62.000
260.000	42.000
261.000	43.000
262.000	39.000
263.000	35.000
264.000	31.000
265.000	20.000
266.000	13.000
267.000	16.000
268.000	18.000
269.000	25.000
270.000	27.000
271.000	17.000
272.000	22.000
273.000	21.000
274.000	22.000
275.000	27.000
276.000	17.000
277.000	27.000
278.000	18.000
279.000	29.000
280.000	15.000
281.000	14.000
282.000	27.000
283.000	24.000
284.000	27.000
285.000	36.000
286.000	43.000
287.000	40.000
288.000	59.000
289.000	59.000
290.000	50.000
291.000	51.000
292.000	53.000
293.000	38.000
294.000	54.000
295.000	40.000
296.000	29.000
297.000	20.000
298.000	25.000
299.000	13.000
300.000	19.000
301.000	12.000
302.000	15.000
303.000	15.000
304.000	16.000
305.000	13.000
306.000	19.000
307.000	23.000
308.000	22.000
309.000	21.000
310.000	30.000
311.000	34.000
312.000	40.000
313.000	61.000
314.000	55.000
315.000	80.000
316.000	121.000
317.000	164.000
318.000	242.000
319.000	352.000
320.000	416.000
321.000	500.000
322.000	567.000
323.000	610.000
324.000	684.000
325.000	658.000
326.000	600.000
327.000	517.000
328.000	477.000
329.000	427.000
330.000	290.000
331.000	271.000
332.000	198.000
333.000	120.000
334.000	78.000
335.000	52.000
336.000	41.000
337.000	33.000
338.000	30.000
339.000	30.000
340.000	32.000
341.000	36.000
342.000	43.000
343.000	43.000
344.000	68.000
345.000	94.000
346.000	122.000
347.000	177.000
348.000	287.000
349.000	374.000
350.000	581.000
351.000	774.000
352.000	1219.000
353.000	1770.000
354.000	2483.000
355.000	3244.000
356.000	4237.000
357.000	5326.000
358.000	6424.000
359.000	7343.000
360.000	8002.000
361.000	8344.000
362.000	8272.000
363.000	7791.000
364.000	7007.000
365.000	6170.000
366.000	5023.000
367.000	3917.000
368.000	2962.000
369.000	2130.000
370.000	1428.000
371.000	1007.000
372.000	619.000
373.000	351.000
374.000	247.000
375.000	153.000
376.000	102.000
377.000	64.000
378.000	66.000
379.000	79.000
380.000	93.000
381.000	117.000
382.000	137.000
383.000	207.000
384.000	272.000
385.000	359.000
386.000	478.000
387.000	599.000
388.000	774.000
389.000	913.000
390.000	1012.000
391.000	1197.000
392.000	1141.000
393.000	1164.000
394.000	1162.000
395.000	1111.000
396.000	1024.000
397.000	861.000
398.000	690.000
399.000	570.000
400.000	414.000
401.000	311.000
402.000	222.000
403.000	127.000
404.000	94.000
405.000	56.000
406.000	44.000
407.000	29.000
408.000	19.000
409.000	15.000
410.000	7.000
411.000	10.000
412.000	14.000
413.000	9.000
414.000	9.000
415.000	8.000
416.000	8.000
417.000	13.000
418.000	7.000
419.000	12.000
420.000	5.000
421.000	6.000
422.000	6.000
423.000	11.000
424.000	14.000
425.000	20.000
426.000	26.000
427.000	44.000
428.000	56.000
429.000	72.000
430.000	142.000
431.000	162.000
432.000	225.000
433.000	332.000
434.000	390.000
435.000	523.000
436.000	648.000
437.000	791.000
438.000	907.000
439.000	1031.000
440.000	1071.000
441.000	1070.000
442.000	1078.000
443.000	1024.000
444.000	939.000
445.000	777.000
446.000	654.000
447.000	542.000
448.000	403.000
449.000	362.000
450.000	262.000
451.000	206.000
452.000	177.000
453.000	123.000
454.000	111.000
455.000	108.000
456.000	94.000
457.000	76.000
458.000	80.000
459.000	56.000
460.000	52.000
461.000	42.000
462.000	38.000
463.000	39.000
464.000	30.000
465.000	41.000
466.000	32.000
467.000	40.000
468.000	39.000
469.000	41.000
470.000	54.000
471.000	40.000
472.000	66.000
473.000	83.000
474.000	98.000
475.000	113.000
476.000	112.000
477.000	141.000
478.000	186.000
479.000	182.000
480.000	197.000
481.000	217.000
482.000	217.000
483.000	220.000
484.000	210.000
485.000	188.000
486.000	169.000
487.000	157.000
488.000	125.000
489.000	105.000
490.000	80.000
491.000	70.000
492.000	41.000
493.000	47.000
494.000	37.000
495.000	31.000
496.000	26.000
497.000	29.000
498.000	28.000
499.000	30.000
500.000	23.000
501.000	27.000
502.000	19.000
503.000	19.000
504.000	25.000
505.000	23.000
506.000	32.000
507.000	43.000
508.000	32.000
509.000	32.000
510.000	20.000
511.000	36.000
512.000	32.000
513.000	38.000
514.000	47.000
515.000	28.000
516.000	47.000
517.000	49.000
518.000	42.000
519.000	30.000
520.000	51.000
521.000	56.000
522.000	48.000
523.000	68.000
524.000	66.000
525.000	76.000
526.000	77.000
527.000	74.000
528.000	74.000
529.000	80.000
530.000	74.000
531.000	76.000
532.000	60.000
533.000	71.000
534.000	54.000
535.000	50.000
536.000	48.000
537.000	54.000
538.000	43.000
539.000	43.000
540.000	35.000
541.000	32.000
542.000	34.000
543.000	41.000
544.000	35.000
545.000	32.000
546.000	29.000
547.000	41.000
548.000	41.000
549.000	38.000
550.000	32.000
551.000	28.000
552.000	35.000
553.000	42.000
554.000	31.000
555.000	33.000
556.000	39.000
557.000	35.000
558.000	35.000
559.000	28.000
560.000	46.000
561.000	43.000
562.000	42.000
563.000	58.000
564.000	65.000
565.000	93.000
566.000	121.000
567.000	146.000
568.000	173.000
569.000	210.000
570.000	272.000
571.000	315.000
572.000	343.000
573.000	372.000
574.000	423.000
575.000	420.000
576.000	446.000
577.000	464.000
578.000	427.000
579.000	418.000
580.000	367.000
581.000	328.000
582.000	302.000
583.000	222.000
584.000	169.000
585.000	164.000
586.000	125.000
587.000	107.000
588.000	82.000
589.000	78.000
590.000	66.000
591.000	47.000
592.000	50.000
593.000	44.000
594.000	60.000
595.000	40.000
596.000	51.000
597.000	59.000
598.000	59.000
599.000	67.000
600.000	63.000
601.000	68.000
602.000	84.000
603.000	85.000
604.000	85.000
605.000	98.000
606.000	161.000
607.000	234.000
608.000	272.000
609.000	369.000
610.000	585.000
611.000	768.000
612.000	1186.000
613.000	1591.000
614.000	2277.000
615.000	3071.000
616.000	4073.000
617.000	5436.000
618.000	6766.000
619.000	8254.000
620.000	9827.000
621.000	11235.000
622.000	12667.000
623.000	13984.000
624.000	14538.000
625.000	14707.000
626.000	15017.000
627.000	14295.000
628.000	13412.000
629.000	12319.000
630.000	10845.000
631.000	9006.000
632.000	7599.000
633.000	6228.000
634.000	4801.000
635.000	3613.000
636.000	2749.000
637.000	2021.000
638.000	1502.000
639.000	1010.000
640.000	649.000
641.000	474.000
642.000	329.000
643.000	210.000
644.000	168.000
645.000	150.000
646.000	95.000
647.000	88.000
648.000	81.000
649.000	77.000
650.000	55.000
651.000	78.000
652.000	72.000
653.000	77.000
654.000	79.000
655.000	79.000
656.000	71.000
657.000	74.000
658.000	79.000
659.000	92.000
660.000	74.000
661.000	77.000
662.000	86.000
663.000	78.000
664.000	85.000
665.000	103.000
666.000	103.000
667.000	81.000
668.000	123.000
669.000	137.000
670.000	119.000
671.000	143.000
672.000	173.000
673.000	200.000
674.000	247.000
675.000	314.000
676.000	368.000
677.000	468.000
678.000	576.000
679.000	752.000
680.000	898.000
681.000	1084.000
682.000	1268.000
683.000	1550.000
684.000	1721.000
685.000	1895.000
686.000	2133.000
687.000	2337.000
688.000	2365.000
689.000	2384.000
690.000	2296.000
691.000	2281.000
692.000	2185.000
693.000	1964.000
694.000	1775.000
695.000	1545.000
696.000	1255.000
697.000	1062.000
698.000	918.000
699.000	702.000
700.000	504.000
701.000	422.000
702.000	306.000
703.000	242.000
704.000	173.000
705.000	124.000
706.000	112.000
707.000	97.000
708.000	76.000
709.000	65.000
710.000	52.000
711.000	49.000
712.000	55.000
713.000	65.000
714.000	62.000
715.000	64.000
716.000	67.000
717.000	66.000
718.000	60.000
719.000	70.000
720.000	79.000
721.000	74.000
722.000	94.000
723.000	77.000
724.000	96.000
725.000	70.000
726.000	91.000
727.000	100.000
728.000	107.000
729.000	107.000
730.000	110.000
731.000	110.000
732.000	101.000
733.000	93.000
734.000	81.000
735.000	86.000
736.000	68.000
737.000	84.000
738.000	75.000
739.000	86.000
740.000	67.000
741.000	83.000
742.000	70.000
743.000	65.000
744.000	63.000
745.000	56.000
746.000	63.000
747.000	66.000
748.000	68.000
749.000	54.000
750.000	74.000
751.000	79.000
752.000	60.000
753.000	68.000
754.000	70.000
755.000	56.000
756.000	69.000
757.000	73.000
758.000	75.000
759.000	69.000
760.000	65.000
761.000	63.000
762.000	72.000
763.000	82.000
764.000	66.000
765.000	78.000
766.000	79.000
767.000	75.000
768.000	64.000
769.000	85.000
770.000	66.000
771.000	76.000
772.000	62.000
773.000	78.000
774.000	81.000
775.000	87.000
776.000	93.000
777.000	89.000
778.000	92.000
779.000	85.000
780.000	118.000
781.000	109.000
782.000	116.000
783.000	115.000
784.000	99.000
785.000	117.000
786.000	110.000
787.000	115.000
788.000	121.000
789.000	144.000
790.000	118.000
791.000	122.000
792.000	127.000
793.000	129.000
794.000	145.000
795.000	157.000
796.000	132.000
797.000	130.000
798.000	144.000
799.000	137.000
800.000	135.000
801.000	139.000
802.000	134.000
803.000	147.000
804.000	155.000
805.000	155.000
806.000	144.000
807.000	168.000
808.000	178.000
809.000	189.000
810.000	164.000
811.000	180.000
812.000	192.000
813.000	200.000
814.000	252.000
815.000	260.000
816.000	235.000
817.000	271.000
818.000	267.000
819.000	281.000
820.000	249.000
821.000	277.000
822.000	252.000
823.000	261.000
824.000	229.000
825.000	249.000
826.000	227.000
827.000	195.000
828.000	163.000
829.000	152.000
830.000	140.000
831.000	158.000
832.000	138.000
833.000	148.000
834.000	135.000
835.000	144.000
836.000	138.000
837.000	132.000
838.000	123.000
839.000	144.000
840.000	159.000
841.000	141.000
842.000	142.000
843.000	153.000
844.000	182.000
845.000	134.000
846.000	168.000
847.000	153.000
848.000	133.000
849.000	121.000
850.000	133.000
851.000	148.000
852.000	125.000
853.000	127.000
854.000	116.000
855.000	113.000
856.000	109.000
857.000	106.000
858.000	123.000
859.000	102.000
860.000	103.000
861.000	91.000
862.000	111.000
863.000	122.000
864.000	104.000
865.000	97.000
866.000	103.000
867.000	123.000
868.000	116.000
869.000	95.000
870.000	106.000
871.000	94.000
872.000	127.000
873.000	113.000
874.000	116.000
875.000	111.000
876.000	116.000
877.000	111.000
878.000	109.000
879.000	113.000
880.000	123.000
881.000	120.000
882.000	140.000
883.000	127.000
884.000	114.000
885.000	125.000
886.000	116.000
887.000	131.000
888.000	118.000
889.000	105.000
890.000	131.000
891.000	105.000
892.000	116.000
893.000	124.000
894.000	125.000
895.000	134.000
896.000	135.000
897.000	139.000
898.000	151.000
899.000	152.000
900.000	159.000
901.000	163.000
902.000	161.000
903.000	154.000
904.000	142.000
905.000	160.000
906.000	135.000
907.000	141.000
908.000	156.000
909.000	154.000
910.000	156.000
911.000	149.000
912.000	151.000
913.000	173.000
914.000	164.000
915.000	143.000
916.000	169.000
917.000	172.000
918.000	188.000
919.000	147.000
920.000	181.000
921.000	159.000
922.000	164.000
923.000	155.000
924.000	198.000
925.000	144.000
926.000	167.000
927.000	178.000
928.000	178.000
929.000	187.000
930.000	185.000
931.000	181.000
932.000	222.000
933.000	196.000
934.000	239.000
935.000	216.000
936.000	208.000
937.000	254.000
938.000	234.000
939.000	223.000
940.000	236.000
941.000	237.000
942.000	237.000
943.000	235.000
944.000	250.000
945.000	251.000
946.000	251.000
947.000	261.000
948.000	246.000
949.000	226.000
950.000	221.000
951.000	207.000
952.000	216.000
953.000	209.000
954.000	186.000
955.000	173.000
956.000	169.000
957.000	178.000
958.000	170.000
959.000	179.000
960.000	167.000
961.000	155.000
962.000	168.000
963.000	168.000
964.000	158.000
965.000	167.000
966.000	158.000
967.000	166.000
968.000	161.000
969.000	198.000
970.000	177.000
971.000	152.000
972.000	163.000
973.000	201.000
974.000	165.000
975.000	184.000
976.000	201.000
977.000	178.000
978.000	189.000
979.000	148.000
980.000	167.000
981.000	158.000
982.000	152.000
983.000	147.000
984.000	154.000
985.000	159.000
986.000	143.000
987.000	145.000
988.000	149.000
989.000	147.000
990.000	113.000
991.000	136.000
992.000	122.000
993.000	141.000
994.000	133.000
995.000	130.000
996.000	141.000
997.000	111.000
998.000	145.000
999.000	126.000
1000.000	143.000
1001.000	123.000
1002.000	151.000
1003.000	125.000
1004.000	124.000
1005.000	116.000
1006.000	132.000
1007.000	140.000
1008.000	123.000
1009.000	148.000
1010.000	123.000
1011.000	111.000
1012.000	143.000
1013.000	135.000
1014.000	126.000
1015.000	132.000
1016.000	132.000
1017.000	121.000
1018.000	148.000
1019.000	143.000
1020.000	112.000
1021.000	133.000
1022.000	142.000
1023.000	133.000
1024.000	122.000
1025.000	150.000
1026.000	142.000
1027.000	131.000
1028.000	138.000
1029.000	143.000
1030.000	122.000
1031.000	124.000
1032.000	173.000
1033.000	143.000
1034.000	115.000
1035.000	138.000
1036.000	126.000
1037.000	135.000
1038.000	152.000
1039.000	160.000
1040.000	134.000
1041.000	158.000
1042.000	145.000
1043.000	143.000
1044.000	124.000
1045.000	129.000
1046.000	138.000
1047.000	130.000
1048.000	149.000
1049.000	142.000
1050.000	150.000
1051.000	137.000
1052.000	155.000
1053.000	146.000
1054.000	153.000
1055.000	153.000
1056.000	133.000
1057.000	148.000
1058.000	149.000
1059.000	157.000
1060.000	167.000
1061.000	140.000
1062.000	150.000
1063.000	131.000
1064.000	143.000
1065.000	159.000
1066.000	155.000
1067.000	174.000
1068.000	154.000
1069.000	144.000
1070.000	149.000
1071.000	155.000
1072.000	154.000
1073.000	163.000
1074.000	133.000
1075.000	144.000
1076.000	138.000
1077.000	162.000
1078.000	134.000
1079.000	130.000
1080.000	135.000
1081.000	139.000
1082.000	142.000
1083.000	141.000
1084.000	152.000
1085.000	159.000
1086.000	151.000
1087.000	133.000
1088.000	134.000
1089.000	143.000
1090.000	127.000
1091.000	157.000
1092.000	150.000
1093.000	200.000
1094.000	147.000
1095.000	152.000
1096.000	157.000
1097.000	153.000
1098.000	157.000
1099.000	175.000
1100.000	186.000
1101.000	180.000
1102.000	164.000
1103.000	151.000
1104.000	157.000
1105.000	154.000
1106.000	138.000
1107.000	150.000
1108.000	180.000
1109.000	148.000
1110.000	159.000
1111.000	149.000
1112.000	166.000
1113.000	161.000
1114.000	151.000
1115.000	136.000
1116.000	169.000
1117.000	159.000
1118.000	139.000
1119.000	156.000
1120.000	154.000
1121.000	151.000
1122.000	157.000
1123.000	159.000
1124.000	144.000
1125.000	142.000
1126.000	136.000
1127.000	156.000
1128.000	167.000
1129.000	145.000
1130.000	134.000
1131.000	172.000
1132.000	141.000
1133.000	148.000
1134.000	147.000
1135.000	138.000
1136.000	161.000
1137.000	159.000
1138.000	152.000
1139.000	159.000
1140.000	156.000
1141.000	162.000
1142.000	156.000
1143.000	150.000
1144.000	147.000
1145.000	144.000
1146.000	157.000
1147.000	126.000
1148.000	151.000
1149.000	153.000
1150.000	116.000
1151.000	151.000
1152.000	186.000
1153.000	158.000
1154.000	156.000
