Date:	17-Sep-20		Time:	5:33 PM		Version no:	0.00		Project name:	55		Sample name:	222		Section name:	section		Position	114.215018	mm	E0	0.000000	keV	E1	1.000000	keV/channel	sample surface	6.726671	cm	Tube anode:	Mo		Tube voltage:	30	kV	Tube current:	30	mA	gain	15		std. database			resultfile	result		matrix element	11		sample thickness	1.000000		air passage	0.560000	cm	comments	in position		peaking_time	0.300000	m-sec	trigger_threshold	40.000000	V	mca_bin_width	2.000000	no:	number_mca_channels	2048.000000	no:	gap_time	2048.000000	m-sec	trigger_peaking_time	2048.000000	m-sec	GAINDAC	400		HIGHGAIN	400		TAURC	400		RCTAU	400		RCTAUFRAC	400		livetime	13.262163	seconds	runtime	15.000030	seconds	input_count_rate	41080.552772	cps	output_count_rate	36321.061902	cps	triggers	606349	seconds	events_in_run	526968	seconds	channel	content		1.000	0.000
2.000	0.000
3.000	0.000
4.000	0.000
5.000	0.000
6.000	0.000
7.000	0.000
8.000	0.000
9.000	0.000
10.000	0.000
11.000	0.000
12.000	0.000
13.000	0.000
14.000	0.000
15.000	0.000
16.000	0.000
17.000	0.000
18.000	0.000
19.000	0.000
20.000	0.000
21.000	0.000
22.000	0.000
23.000	0.000
24.000	0.000
25.000	0.000
26.000	0.000
27.000	0.000
28.000	0.000
29.000	0.000
30.000	0.000
31.000	2.000
32.000	0.000
33.000	0.000
34.000	0.000
35.000	0.000
36.000	0.000
37.000	1.000
38.000	1.000
39.000	0.000
40.000	0.000
41.000	0.000
42.000	0.000
43.000	1.000
44.000	0.000
45.000	0.000
46.000	0.000
47.000	0.000
48.000	1.000
49.000	0.000
50.000	1.000
51.000	3.000
52.000	2.000
53.000	3.000
54.000	3.000
55.000	2.000
56.000	8.000
57.000	13.000
58.000	13.000
59.000	17.000
60.000	11.000
61.000	21.000
62.000	28.000
63.000	32.000
64.000	32.000
65.000	28.000
66.000	31.000
67.000	29.000
68.000	28.000
69.000	33.000
70.000	15.000
71.000	25.000
72.000	19.000
73.000	31.000
74.000	31.000
75.000	28.000
76.000	20.000
77.000	27.000
78.000	26.000
79.000	25.000
80.000	13.000
81.000	21.000
82.000	28.000
83.000	26.000
84.000	34.000
85.000	32.000
86.000	28.000
87.000	23.000
88.000	25.000
89.000	33.000
90.000	25.000
91.000	26.000
92.000	22.000
93.000	23.000
94.000	24.000
95.000	27.000
96.000	21.000
97.000	23.000
98.000	15.000
99.000	25.000
100.000	20.000
101.000	20.000
102.000	19.000
103.000	22.000
104.000	23.000
105.000	21.000
106.000	19.000
107.000	14.000
108.000	15.000
109.000	20.000
110.000	18.000
111.000	21.000
112.000	15.000
113.000	20.000
114.000	16.000
115.000	14.000
116.000	17.000
117.000	12.000
118.000	20.000
119.000	22.000
120.000	23.000
121.000	12.000
122.000	17.000
123.000	17.000
124.000	19.000
125.000	10.000
126.000	17.000
127.000	21.000
128.000	15.000
129.000	14.000
130.000	11.000
131.000	12.000
132.000	10.000
133.000	14.000
134.000	24.000
135.000	12.000
136.000	15.000
137.000	12.000
138.000	17.000
139.000	13.000
140.000	22.000
141.000	22.000
142.000	23.000
143.000	24.000
144.000	27.000
145.000	29.000
146.000	30.000
147.000	21.000
148.000	28.000
149.000	25.000
150.000	27.000
151.000	20.000
152.000	19.000
153.000	26.000
154.000	27.000
155.000	28.000
156.000	20.000
157.000	9.000
158.000	14.000
159.000	26.000
160.000	19.000
161.000	30.000
162.000	17.000
163.000	17.000
164.000	28.000
165.000	52.000
166.000	63.000
167.000	81.000
168.000	96.000
169.000	116.000
170.000	132.000
171.000	142.000
172.000	101.000
173.000	108.000
174.000	91.000
175.000	65.000
176.000	71.000
177.000	40.000
178.000	33.000
179.000	30.000
180.000	19.000
181.000	17.000
182.000	16.000
183.000	31.000
184.000	22.000
185.000	35.000
186.000	33.000
187.000	44.000
188.000	49.000
189.000	65.000
190.000	69.000
191.000	71.000
192.000	55.000
193.000	51.000
194.000	49.000
195.000	34.000
196.000	28.000
197.000	32.000
198.000	21.000
199.000	25.000
200.000	16.000
201.000	9.000
202.000	12.000
203.000	13.000
204.000	8.000
205.000	8.000
206.000	5.000
207.000	9.000
208.000	16.000
209.000	10.000
210.000	13.000
211.000	15.000
212.000	8.000
213.000	11.000
214.000	14.000
215.000	12.000
216.000	8.000
217.000	20.000
218.000	18.000
219.000	16.000
220.000	16.000
221.000	14.000
222.000	11.000
223.000	12.000
224.000	15.000
225.000	20.000
226.000	15.000
227.000	19.000
228.000	11.000
229.000	17.000
230.000	9.000
231.000	5.000
232.000	12.000
233.000	8.000
234.000	11.000
235.000	7.000
236.000	10.000
237.000	12.000
238.000	5.000
239.000	8.000
240.000	10.000
241.000	6.000
242.000	5.000
243.000	10.000
244.000	9.000
245.000	14.000
246.000	11.000
247.000	11.000
248.000	13.000
249.000	21.000
250.000	20.000
251.000	44.000
252.000	49.000
253.000	53.000
254.000	69.000
255.000	60.000
256.000	64.000
257.000	77.000
258.000	67.000
259.000	78.000
260.000	36.000
261.000	44.000
262.000	31.000
263.000	36.000
264.000	27.000
265.000	27.000
266.000	21.000
267.000	23.000
268.000	14.000
269.000	13.000
270.000	13.000
271.000	16.000
272.000	15.000
273.000	19.000
274.000	23.000
275.000	20.000
276.000	22.000
277.000	28.000
278.000	18.000
279.000	17.000
280.000	13.000
281.000	11.000
282.000	14.000
283.000	25.000
284.000	42.000
285.000	39.000
286.000	40.000
287.000	53.000
288.000	55.000
289.000	47.000
290.000	51.000
291.000	60.000
292.000	51.000
293.000	40.000
294.000	37.000
295.000	37.000
296.000	27.000
297.000	17.000
298.000	23.000
299.000	21.000
300.000	22.000
301.000	14.000
302.000	11.000
303.000	10.000
304.000	16.000
305.000	11.000
306.000	14.000
307.000	9.000
308.000	25.000
309.000	28.000
310.000	26.000
311.000	23.000
312.000	43.000
313.000	56.000
314.000	65.000
315.000	99.000
316.000	149.000
317.000	218.000
318.000	266.000
319.000	384.000
320.000	478.000
321.000	587.000
322.000	679.000
323.000	747.000
324.000	795.000
325.000	799.000
326.000	784.000
327.000	736.000
328.000	583.000
329.000	479.000
330.000	355.000
331.000	290.000
332.000	190.000
333.000	136.000
334.000	98.000
335.000	52.000
336.000	35.000
337.000	33.000
338.000	25.000
339.000	18.000
340.000	26.000
341.000	27.000
342.000	41.000
343.000	45.000
344.000	53.000
345.000	68.000
346.000	82.000
347.000	123.000
348.000	172.000
349.000	249.000
350.000	358.000
351.000	476.000
352.000	719.000
353.000	962.000
354.000	1313.000
355.000	1784.000
356.000	2291.000
357.000	2868.000
358.000	3346.000
359.000	3845.000
360.000	4140.000
361.000	4487.000
362.000	4314.000
363.000	4069.000
364.000	3714.000
365.000	3208.000
366.000	2591.000
367.000	2128.000
368.000	1551.000
369.000	1110.000
370.000	750.000
371.000	492.000
372.000	365.000
373.000	184.000
374.000	119.000
375.000	73.000
376.000	47.000
377.000	48.000
378.000	47.000
379.000	35.000
380.000	45.000
381.000	53.000
382.000	91.000
383.000	96.000
384.000	162.000
385.000	157.000
386.000	243.000
387.000	336.000
388.000	399.000
389.000	496.000
390.000	556.000
391.000	641.000
392.000	612.000
393.000	630.000
394.000	663.000
395.000	579.000
396.000	506.000
397.000	447.000
398.000	331.000
399.000	297.000
400.000	231.000
401.000	149.000
402.000	103.000
403.000	73.000
404.000	64.000
405.000	36.000
406.000	22.000
407.000	18.000
408.000	12.000
409.000	12.000
410.000	11.000
411.000	4.000
412.000	4.000
413.000	4.000
414.000	7.000
415.000	5.000
416.000	6.000
417.000	6.000
418.000	7.000
419.000	7.000
420.000	6.000
421.000	3.000
422.000	8.000
423.000	12.000
424.000	8.000
425.000	6.000
426.000	19.000
427.000	34.000
428.000	30.000
429.000	45.000
430.000	50.000
431.000	100.000
432.000	124.000
433.000	212.000
434.000	213.000
435.000	299.000
436.000	332.000
437.000	422.000
438.000	495.000
439.000	566.000
440.000	580.000
441.000	608.000
442.000	611.000
443.000	553.000
444.000	500.000
445.000	428.000
446.000	365.000
447.000	318.000
448.000	219.000
449.000	196.000
450.000	152.000
451.000	123.000
452.000	97.000
453.000	78.000
454.000	83.000
455.000	79.000
456.000	61.000
457.000	48.000
458.000	52.000
459.000	43.000
460.000	34.000
461.000	41.000
462.000	25.000
463.000	27.000
464.000	14.000
465.000	25.000
466.000	29.000
467.000	31.000
468.000	33.000
469.000	31.000
470.000	35.000
471.000	45.000
472.000	45.000
473.000	51.000
474.000	55.000
475.000	57.000
476.000	63.000
477.000	81.000
478.000	76.000
479.000	110.000
480.000	102.000
481.000	107.000
482.000	114.000
483.000	115.000
484.000	114.000
485.000	120.000
486.000	93.000
487.000	80.000
488.000	63.000
489.000	53.000
490.000	62.000
491.000	48.000
492.000	44.000
493.000	22.000
494.000	31.000
495.000	26.000
496.000	30.000
497.000	18.000
498.000	27.000
499.000	28.000
500.000	25.000
501.000	25.000
502.000	23.000
503.000	18.000
504.000	19.000
505.000	26.000
506.000	32.000
507.000	24.000
508.000	21.000
509.000	18.000
510.000	22.000
511.000	30.000
512.000	31.000
513.000	28.000
514.000	33.000
515.000	37.000
516.000	32.000
517.000	42.000
518.000	26.000
519.000	36.000
520.000	37.000
521.000	41.000
522.000	37.000
523.000	54.000
524.000	52.000
525.000	40.000
526.000	54.000
527.000	54.000
528.000	38.000
529.000	50.000
530.000	41.000
531.000	59.000
532.000	44.000
533.000	37.000
534.000	54.000
535.000	38.000
536.000	39.000
537.000	44.000
538.000	27.000
539.000	24.000
540.000	28.000
541.000	37.000
542.000	25.000
543.000	31.000
544.000	22.000
545.000	27.000
546.000	25.000
547.000	20.000
548.000	24.000
549.000	22.000
550.000	27.000
551.000	31.000
552.000	24.000
553.000	29.000
554.000	35.000
555.000	34.000
556.000	30.000
557.000	32.000
558.000	38.000
559.000	37.000
560.000	31.000
561.000	44.000
562.000	56.000
563.000	53.000
564.000	67.000
565.000	66.000
566.000	81.000
567.000	106.000
568.000	150.000
569.000	172.000
570.000	196.000
571.000	247.000
572.000	270.000
573.000	290.000
574.000	304.000
575.000	345.000
576.000	340.000
577.000	346.000
578.000	304.000
579.000	294.000
580.000	277.000
581.000	246.000
582.000	195.000
583.000	182.000
584.000	147.000
585.000	129.000
586.000	115.000
587.000	99.000
588.000	67.000
589.000	56.000
590.000	48.000
591.000	49.000
592.000	50.000
593.000	43.000
594.000	52.000
595.000	39.000
596.000	51.000
597.000	40.000
598.000	52.000
599.000	46.000
600.000	57.000
601.000	51.000
602.000	53.000
603.000	58.000
604.000	76.000
605.000	90.000
606.000	108.000
607.000	133.000
608.000	193.000
609.000	255.000
610.000	347.000
611.000	534.000
612.000	718.000
613.000	1025.000
614.000	1423.000
615.000	1947.000
616.000	2504.000
617.000	3321.000
618.000	4034.000
619.000	4915.000
620.000	5954.000
621.000	6756.000
622.000	7797.000
623.000	8317.000
624.000	8789.000
625.000	8928.000
626.000	8936.000
627.000	8723.000
628.000	8128.000
629.000	7234.000
630.000	6481.000
631.000	5633.000
632.000	4728.000
633.000	3734.000
634.000	2917.000
635.000	2260.000
636.000	1637.000
637.000	1211.000
638.000	896.000
639.000	603.000
640.000	415.000
641.000	290.000
642.000	200.000
643.000	166.000
644.000	118.000
645.000	91.000
646.000	92.000
647.000	65.000
648.000	66.000
649.000	58.000
650.000	64.000
651.000	64.000
652.000	66.000
653.000	68.000
654.000	56.000
655.000	70.000
656.000	66.000
657.000	59.000
658.000	62.000
659.000	57.000
660.000	71.000
661.000	66.000
662.000	51.000
663.000	54.000
664.000	64.000
665.000	80.000
666.000	99.000
667.000	91.000
668.000	96.000
669.000	80.000
670.000	89.000
671.000	100.000
672.000	110.000
673.000	138.000
674.000	145.000
675.000	188.000
676.000	244.000
677.000	283.000
678.000	362.000
679.000	449.000
680.000	542.000
681.000	670.000
682.000	798.000
683.000	944.000
684.000	1050.000
685.000	1120.000
686.000	1328.000
687.000	1320.000
688.000	1433.000
689.000	1527.000
690.000	1427.000
691.000	1416.000
692.000	1386.000
693.000	1181.000
694.000	1074.000
695.000	921.000
696.000	781.000
697.000	647.000
698.000	541.000
699.000	458.000
700.000	314.000
701.000	303.000
702.000	211.000
703.000	177.000
704.000	136.000
705.000	114.000
706.000	82.000
707.000	59.000
708.000	60.000
709.000	57.000
710.000	70.000
711.000	56.000
712.000	71.000
713.000	55.000
714.000	73.000
715.000	67.000
716.000	78.000
717.000	63.000
718.000	66.000
719.000	60.000
720.000	76.000
721.000	75.000
722.000	76.000
723.000	83.000
724.000	75.000
725.000	81.000
726.000	77.000
727.000	74.000
728.000	91.000
729.000	98.000
730.000	81.000
731.000	109.000
732.000	70.000
733.000	82.000
734.000	89.000
735.000	96.000
736.000	68.000
737.000	78.000
738.000	71.000
739.000	65.000
740.000	79.000
741.000	76.000
742.000	59.000
743.000	73.000
744.000	58.000
745.000	73.000
746.000	73.000
747.000	75.000
748.000	81.000
749.000	51.000
750.000	68.000
751.000	66.000
752.000	65.000
753.000	66.000
754.000	65.000
755.000	68.000
756.000	64.000
757.000	61.000
758.000	76.000
759.000	72.000
760.000	68.000
761.000	84.000
762.000	84.000
763.000	65.000
764.000	84.000
765.000	87.000
766.000	79.000
767.000	82.000
768.000	75.000
769.000	83.000
770.000	74.000
771.000	83.000
772.000	109.000
773.000	79.000
774.000	72.000
775.000	99.000
776.000	94.000
777.000	99.000
778.000	75.000
779.000	106.000
780.000	104.000
781.000	123.000
782.000	116.000
783.000	115.000
784.000	115.000
785.000	119.000
786.000	119.000
787.000	128.000
788.000	113.000
789.000	130.000
790.000	122.000
791.000	142.000
792.000	147.000
793.000	128.000
794.000	137.000
795.000	139.000
796.000	169.000
797.000	128.000
798.000	170.000
799.000	135.000
800.000	153.000
801.000	132.000
802.000	138.000
803.000	159.000
804.000	160.000
805.000	148.000
806.000	156.000
807.000	163.000
808.000	171.000
809.000	206.000
810.000	187.000
811.000	207.000
812.000	234.000
813.000	225.000
814.000	281.000
815.000	291.000
816.000	257.000
817.000	273.000
818.000	276.000
819.000	283.000
820.000	284.000
821.000	264.000
822.000	252.000
823.000	278.000
824.000	238.000
825.000	224.000
826.000	217.000
827.000	221.000
828.000	164.000
829.000	174.000
830.000	187.000
831.000	168.000
832.000	125.000
833.000	125.000
834.000	148.000
835.000	132.000
836.000	154.000
837.000	134.000
838.000	151.000
839.000	181.000
840.000	152.000
841.000	161.000
842.000	163.000
843.000	171.000
844.000	165.000
845.000	148.000
846.000	162.000
847.000	165.000
848.000	150.000
849.000	125.000
850.000	130.000
851.000	135.000
852.000	126.000
853.000	137.000
854.000	106.000
855.000	111.000
856.000	115.000
857.000	100.000
858.000	115.000
859.000	109.000
860.000	117.000
861.000	119.000
862.000	122.000
863.000	141.000
864.000	109.000
865.000	98.000
866.000	120.000
867.000	118.000
868.000	118.000
869.000	115.000
870.000	123.000
871.000	124.000
872.000	111.000
873.000	136.000
874.000	126.000
875.000	130.000
876.000	122.000
877.000	118.000
878.000	107.000
879.000	124.000
880.000	117.000
881.000	123.000
882.000	113.000
883.000	120.000
884.000	130.000
885.000	119.000
886.000	131.000
887.000	142.000
888.000	121.000
889.000	134.000
890.000	116.000
891.000	148.000
892.000	147.000
893.000	124.000
894.000	136.000
895.000	139.000
896.000	139.000
897.000	152.000
898.000	150.000
899.000	164.000
900.000	152.000
901.000	170.000
902.000	149.000
903.000	183.000
904.000	179.000
905.000	158.000
906.000	175.000
907.000	173.000
908.000	189.000
909.000	178.000
910.000	198.000
911.000	181.000
912.000	175.000
913.000	168.000
914.000	185.000
915.000	180.000
916.000	183.000
917.000	165.000
918.000	187.000
919.000	187.000
920.000	200.000
921.000	209.000
922.000	167.000
923.000	168.000
924.000	188.000
925.000	198.000
926.000	179.000
927.000	182.000
928.000	216.000
929.000	212.000
930.000	211.000
931.000	211.000
932.000	216.000
933.000	218.000
934.000	200.000
935.000	249.000
936.000	223.000
937.000	245.000
938.000	281.000
939.000	242.000
940.000	228.000
941.000	262.000
942.000	258.000
943.000	276.000
944.000	263.000
945.000	287.000
946.000	273.000
947.000	270.000
948.000	244.000
949.000	220.000
950.000	222.000
951.000	236.000
952.000	224.000
953.000	205.000
954.000	201.000
955.000	219.000
956.000	204.000
957.000	200.000
958.000	185.000
959.000	154.000
960.000	176.000
961.000	186.000
962.000	187.000
963.000	180.000
964.000	175.000
965.000	182.000
966.000	176.000
967.000	168.000
968.000	175.000
969.000	188.000
970.000	177.000
971.000	210.000
972.000	153.000
973.000	205.000
974.000	166.000
975.000	188.000
976.000	190.000
977.000	153.000
978.000	181.000
979.000	171.000
980.000	168.000
981.000	157.000
982.000	167.000
983.000	137.000
984.000	157.000
985.000	130.000
986.000	182.000
987.000	153.000
988.000	148.000
989.000	138.000
990.000	148.000
991.000	139.000
992.000	155.000
993.000	163.000
994.000	140.000
995.000	123.000
996.000	126.000
997.000	163.000
998.000	137.000
999.000	151.000
1000.000	156.000
1001.000	133.000
1002.000	121.000
1003.000	142.000
1004.000	142.000
1005.000	148.000
1006.000	114.000
1007.000	124.000
1008.000	137.000
1009.000	144.000
1010.000	126.000
1011.000	154.000
1012.000	130.000
1013.000	159.000
1014.000	148.000
1015.000	134.000
1016.000	142.000
1017.000	123.000
1018.000	144.000
1019.000	144.000
1020.000	140.000
1021.000	145.000
1022.000	136.000
1023.000	166.000
1024.000	155.000
1025.000	145.000
1026.000	153.000
1027.000	165.000
1028.000	129.000
1029.000	109.000
1030.000	164.000
1031.000	149.000
1032.000	161.000
1033.000	143.000
1034.000	153.000
1035.000	155.000
1036.000	149.000
1037.000	133.000
1038.000	146.000
1039.000	154.000
1040.000	173.000
1041.000	139.000
1042.000	140.000
1043.000	160.000
1044.000	184.000
1045.000	156.000
1046.000	148.000
1047.000	156.000
1048.000	163.000
1049.000	160.000
1050.000	135.000
1051.000	171.000
1052.000	159.000
1053.000	137.000
1054.000	171.000
1055.000	179.000
1056.000	169.000
1057.000	146.000
1058.000	158.000
1059.000	164.000
1060.000	169.000
1061.000	165.000
1062.000	142.000
1063.000	160.000
1064.000	173.000
1065.000	159.000
1066.000	172.000
1067.000	155.000
1068.000	159.000
1069.000	170.000
1070.000	175.000
1071.000	135.000
1072.000	139.000
1073.000	189.000
1074.000	143.000
1075.000	134.000
1076.000	180.000
1077.000	159.000
1078.000	172.000
1079.000	151.000
1080.000	171.000
1081.000	149.000
1082.000	162.000
1083.000	166.000
1084.000	165.000
1085.000	169.000
1086.000	151.000
1087.000	146.000
1088.000	189.000
1089.000	178.000
1090.000	176.000
1091.000	144.000
1092.000	158.000
1093.000	191.000
1094.000	184.000
1095.000	164.000
1096.000	191.000
1097.000	196.000
1098.000	168.000
1099.000	192.000
1100.000	180.000
1101.000	176.000
1102.000	187.000
1103.000	175.000
1104.000	195.000
1105.000	172.000
1106.000	172.000
1107.000	170.000
1108.000	172.000
1109.000	177.000
1110.000	164.000
1111.000	193.000
1112.000	185.000
1113.000	171.000
1114.000	153.000
1115.000	173.000
1116.000	162.000
1117.000	178.000
1118.000	151.000
1119.000	171.000
1120.000	174.000
1121.000	165.000
1122.000	180.000
1123.000	169.000
1124.000	160.000
1125.000	181.000
1126.000	145.000
1127.000	175.000
1128.000	177.000
1129.000	193.000
1130.000	163.000
1131.000	157.000
1132.000	147.000
1133.000	183.000
1134.000	198.000
1135.000	178.000
1136.000	166.000
1137.000	153.000
1138.000	168.000
1139.000	176.000
1140.000	147.000
1141.000	182.000
1142.000	181.000
1143.000	170.000
1144.000	169.000
1145.000	152.000
1146.000	194.000
1147.000	141.000
1148.000	196.000
1149.000	168.000
1150.000	186.000
1151.000	168.000
1152.000	191.000
1153.000	187.000
1154.000	175.000
1155.000	153.000
1156.000	190.000
1157.000	191.000
1158.000	195.000
