Date:	17-Sep-20		Time:	6:12 PM		Version no:	0.00		Project name:	55		Sample name:	222		Section name:	section		Position	259.215018	mm	E0	0.000000	keV	E1	1.000000	keV/channel	sample surface	7.044684	cm	Tube anode:	Mo		Tube voltage:	30	kV	Tube current:	30	mA	gain	15		std. database			resultfile	result		matrix element	11		sample thickness	1.000000		air passage	0.560000	cm	comments	in position		peaking_time	0.300000	m-sec	trigger_threshold	40.000000	V	mca_bin_width	2.000000	no:	number_mca_channels	2048.000000	no:	gap_time	2048.000000	m-sec	trigger_peaking_time	2048.000000	m-sec	GAINDAC	400		HIGHGAIN	400		TAURC	400		RCTAU	400		RCTAUFRAC	400		livetime	13.336683	seconds	runtime	15.000006	seconds	input_count_rate	45322.364086	cps	output_count_rate	40296.650548	cps	triggers	668663	seconds	events_in_run	587440	seconds	channel	content		1.000	0.000
2.000	0.000
3.000	0.000
4.000	0.000
5.000	0.000
6.000	0.000
7.000	0.000
8.000	0.000
9.000	0.000
10.000	0.000
11.000	0.000
12.000	0.000
13.000	0.000
14.000	0.000
15.000	0.000
16.000	0.000
17.000	0.000
18.000	0.000
19.000	0.000
20.000	0.000
21.000	0.000
22.000	0.000
23.000	0.000
24.000	0.000
25.000	0.000
26.000	0.000
27.000	0.000
28.000	0.000
29.000	0.000
30.000	0.000
31.000	0.000
32.000	0.000
33.000	0.000
34.000	0.000
35.000	0.000
36.000	1.000
37.000	0.000
38.000	0.000
39.000	1.000
40.000	1.000
41.000	0.000
42.000	1.000
43.000	0.000
44.000	0.000
45.000	0.000
46.000	0.000
47.000	0.000
48.000	0.000
49.000	0.000
50.000	1.000
51.000	3.000
52.000	5.000
53.000	4.000
54.000	2.000
55.000	5.000
56.000	10.000
57.000	10.000
58.000	11.000
59.000	13.000
60.000	22.000
61.000	30.000
62.000	29.000
63.000	24.000
64.000	27.000
65.000	28.000
66.000	19.000
67.000	24.000
68.000	29.000
69.000	26.000
70.000	24.000
71.000	32.000
72.000	24.000
73.000	26.000
74.000	23.000
75.000	23.000
76.000	24.000
77.000	34.000
78.000	19.000
79.000	17.000
80.000	17.000
81.000	32.000
82.000	19.000
83.000	26.000
84.000	22.000
85.000	34.000
86.000	22.000
87.000	21.000
88.000	30.000
89.000	22.000
90.000	23.000
91.000	22.000
92.000	20.000
93.000	28.000
94.000	26.000
95.000	17.000
96.000	21.000
97.000	32.000
98.000	17.000
99.000	23.000
100.000	22.000
101.000	18.000
102.000	24.000
103.000	19.000
104.000	18.000
105.000	26.000
106.000	26.000
107.000	18.000
108.000	20.000
109.000	9.000
110.000	18.000
111.000	28.000
112.000	15.000
113.000	27.000
114.000	17.000
115.000	14.000
116.000	15.000
117.000	17.000
118.000	16.000
119.000	18.000
120.000	23.000
121.000	16.000
122.000	25.000
123.000	18.000
124.000	16.000
125.000	15.000
126.000	15.000
127.000	12.000
128.000	17.000
129.000	15.000
130.000	8.000
131.000	15.000
132.000	16.000
133.000	21.000
134.000	17.000
135.000	17.000
136.000	22.000
137.000	14.000
138.000	16.000
139.000	21.000
140.000	17.000
141.000	24.000
142.000	24.000
143.000	23.000
144.000	29.000
145.000	20.000
146.000	29.000
147.000	34.000
148.000	25.000
149.000	26.000
150.000	30.000
151.000	35.000
152.000	26.000
153.000	20.000
154.000	22.000
155.000	21.000
156.000	21.000
157.000	19.000
158.000	22.000
159.000	9.000
160.000	15.000
161.000	20.000
162.000	20.000
163.000	19.000
164.000	22.000
165.000	47.000
166.000	77.000
167.000	72.000
168.000	95.000
169.000	110.000
170.000	118.000
171.000	126.000
172.000	121.000
173.000	119.000
174.000	76.000
175.000	69.000
176.000	54.000
177.000	43.000
178.000	40.000
179.000	32.000
180.000	39.000
181.000	32.000
182.000	36.000
183.000	36.000
184.000	42.000
185.000	25.000
186.000	70.000
187.000	80.000
188.000	97.000
189.000	83.000
190.000	105.000
191.000	130.000
192.000	120.000
193.000	109.000
194.000	89.000
195.000	58.000
196.000	62.000
197.000	47.000
198.000	34.000
199.000	16.000
200.000	16.000
201.000	19.000
202.000	12.000
203.000	14.000
204.000	12.000
205.000	19.000
206.000	9.000
207.000	10.000
208.000	16.000
209.000	7.000
210.000	17.000
211.000	18.000
212.000	10.000
213.000	20.000
214.000	15.000
215.000	14.000
216.000	21.000
217.000	21.000
218.000	22.000
219.000	22.000
220.000	21.000
221.000	25.000
222.000	18.000
223.000	35.000
224.000	21.000
225.000	20.000
226.000	25.000
227.000	22.000
228.000	13.000
229.000	15.000
230.000	18.000
231.000	8.000
232.000	15.000
233.000	9.000
234.000	9.000
235.000	11.000
236.000	10.000
237.000	19.000
238.000	13.000
239.000	14.000
240.000	15.000
241.000	3.000
242.000	14.000
243.000	8.000
244.000	14.000
245.000	14.000
246.000	14.000
247.000	18.000
248.000	13.000
249.000	18.000
250.000	31.000
251.000	41.000
252.000	55.000
253.000	58.000
254.000	70.000
255.000	88.000
256.000	81.000
257.000	106.000
258.000	82.000
259.000	71.000
260.000	82.000
261.000	59.000
262.000	57.000
263.000	49.000
264.000	33.000
265.000	25.000
266.000	15.000
267.000	34.000
268.000	12.000
269.000	14.000
270.000	21.000
271.000	22.000
272.000	27.000
273.000	18.000
274.000	19.000
275.000	17.000
276.000	25.000
277.000	23.000
278.000	21.000
279.000	15.000
280.000	22.000
281.000	24.000
282.000	25.000
283.000	34.000
284.000	31.000
285.000	45.000
286.000	44.000
287.000	58.000
288.000	51.000
289.000	61.000
290.000	54.000
291.000	70.000
292.000	56.000
293.000	57.000
294.000	47.000
295.000	34.000
296.000	29.000
297.000	20.000
298.000	19.000
299.000	17.000
300.000	13.000
301.000	14.000
302.000	12.000
303.000	12.000
304.000	19.000
305.000	9.000
306.000	10.000
307.000	25.000
308.000	28.000
309.000	19.000
310.000	23.000
311.000	31.000
312.000	46.000
313.000	40.000
314.000	87.000
315.000	103.000
316.000	112.000
317.000	186.000
318.000	263.000
319.000	323.000
320.000	429.000
321.000	542.000
322.000	615.000
323.000	684.000
324.000	721.000
325.000	732.000
326.000	662.000
327.000	570.000
328.000	538.000
329.000	462.000
330.000	352.000
331.000	247.000
332.000	196.000
333.000	119.000
334.000	97.000
335.000	57.000
336.000	41.000
337.000	40.000
338.000	36.000
339.000	22.000
340.000	37.000
341.000	51.000
342.000	46.000
343.000	51.000
344.000	83.000
345.000	113.000
346.000	135.000
347.000	179.000
348.000	256.000
349.000	378.000
350.000	645.000
351.000	859.000
352.000	1318.000
353.000	1936.000
354.000	2663.000
355.000	3649.000
356.000	4726.000
357.000	5852.000
358.000	6857.000
359.000	7799.000
360.000	8612.000
361.000	8908.000
362.000	8946.000
363.000	8402.000
364.000	7630.000
365.000	6641.000
366.000	5372.000
367.000	4277.000
368.000	3028.000
369.000	2319.000
370.000	1609.000
371.000	990.000
372.000	700.000
373.000	432.000
374.000	258.000
375.000	184.000
376.000	109.000
377.000	84.000
378.000	70.000
379.000	85.000
380.000	116.000
381.000	119.000
382.000	148.000
383.000	234.000
384.000	309.000
385.000	408.000
386.000	514.000
387.000	687.000
388.000	816.000
389.000	983.000
390.000	1156.000
391.000	1204.000
392.000	1343.000
393.000	1385.000
394.000	1295.000
395.000	1271.000
396.000	1057.000
397.000	930.000
398.000	753.000
399.000	564.000
400.000	434.000
401.000	355.000
402.000	235.000
403.000	152.000
404.000	104.000
405.000	62.000
406.000	42.000
407.000	25.000
408.000	16.000
409.000	18.000
410.000	11.000
411.000	9.000
412.000	7.000
413.000	8.000
414.000	10.000
415.000	12.000
416.000	13.000
417.000	8.000
418.000	6.000
419.000	17.000
420.000	6.000
421.000	14.000
422.000	11.000
423.000	6.000
424.000	11.000
425.000	8.000
426.000	18.000
427.000	28.000
428.000	34.000
429.000	55.000
430.000	70.000
431.000	86.000
432.000	130.000
433.000	177.000
434.000	234.000
435.000	289.000
436.000	386.000
437.000	452.000
438.000	483.000
439.000	569.000
440.000	643.000
441.000	602.000
442.000	604.000
443.000	575.000
444.000	505.000
445.000	480.000
446.000	372.000
447.000	315.000
448.000	237.000
449.000	207.000
450.000	150.000
451.000	144.000
452.000	110.000
453.000	71.000
454.000	69.000
455.000	59.000
456.000	50.000
457.000	44.000
458.000	43.000
459.000	40.000
460.000	31.000
461.000	29.000
462.000	31.000
463.000	21.000
464.000	32.000
465.000	28.000
466.000	25.000
467.000	30.000
468.000	24.000
469.000	49.000
470.000	35.000
471.000	29.000
472.000	53.000
473.000	45.000
474.000	57.000
475.000	57.000
476.000	79.000
477.000	100.000
478.000	122.000
479.000	96.000
480.000	103.000
481.000	129.000
482.000	102.000
483.000	135.000
484.000	115.000
485.000	106.000
486.000	100.000
487.000	91.000
488.000	52.000
489.000	75.000
490.000	60.000
491.000	51.000
492.000	51.000
493.000	46.000
494.000	30.000
495.000	35.000
496.000	26.000
497.000	25.000
498.000	20.000
499.000	18.000
500.000	18.000
501.000	23.000
502.000	27.000
503.000	27.000
504.000	16.000
505.000	21.000
506.000	26.000
507.000	21.000
508.000	20.000
509.000	30.000
510.000	24.000
511.000	27.000
512.000	39.000
513.000	28.000
514.000	41.000
515.000	50.000
516.000	39.000
517.000	43.000
518.000	46.000
519.000	35.000
520.000	44.000
521.000	36.000
522.000	40.000
523.000	50.000
524.000	44.000
525.000	45.000
526.000	62.000
527.000	54.000
528.000	49.000
529.000	59.000
530.000	51.000
531.000	59.000
532.000	57.000
533.000	43.000
534.000	43.000
535.000	33.000
536.000	39.000
537.000	41.000
538.000	45.000
539.000	27.000
540.000	32.000
541.000	24.000
542.000	25.000
543.000	28.000
544.000	28.000
545.000	32.000
546.000	19.000
547.000	29.000
548.000	27.000
549.000	23.000
550.000	34.000
551.000	26.000
552.000	23.000
553.000	36.000
554.000	30.000
555.000	35.000
556.000	33.000
557.000	39.000
558.000	24.000
559.000	36.000
560.000	39.000
561.000	42.000
562.000	51.000
563.000	63.000
564.000	66.000
565.000	86.000
566.000	100.000
567.000	102.000
568.000	129.000
569.000	163.000
570.000	209.000
571.000	230.000
572.000	294.000
573.000	285.000
574.000	310.000
575.000	331.000
576.000	368.000
577.000	367.000
578.000	351.000
579.000	290.000
580.000	291.000
581.000	249.000
582.000	210.000
583.000	185.000
584.000	138.000
585.000	121.000
586.000	113.000
587.000	76.000
588.000	73.000
589.000	61.000
590.000	60.000
591.000	56.000
592.000	53.000
593.000	38.000
594.000	49.000
595.000	47.000
596.000	35.000
597.000	31.000
598.000	52.000
599.000	53.000
600.000	50.000
601.000	72.000
602.000	71.000
603.000	48.000
604.000	55.000
605.000	74.000
606.000	94.000
607.000	128.000
608.000	193.000
609.000	252.000
610.000	396.000
611.000	480.000
612.000	740.000
613.000	1021.000
614.000	1393.000
615.000	1901.000
616.000	2550.000
617.000	3277.000
618.000	4090.000
619.000	4924.000
620.000	5833.000
621.000	6830.000
622.000	7568.000
623.000	8280.000
624.000	8717.000
625.000	8999.000
626.000	8818.000
627.000	8532.000
628.000	8116.000
629.000	7203.000
630.000	6350.000
631.000	5552.000
632.000	4564.000
633.000	3735.000
634.000	2905.000
635.000	2273.000
636.000	1665.000
637.000	1238.000
638.000	804.000
639.000	617.000
640.000	439.000
641.000	329.000
642.000	235.000
643.000	150.000
644.000	121.000
645.000	113.000
646.000	92.000
647.000	72.000
648.000	83.000
649.000	72.000
650.000	68.000
651.000	78.000
652.000	62.000
653.000	66.000
654.000	58.000
655.000	65.000
656.000	70.000
657.000	71.000
658.000	72.000
659.000	67.000
660.000	65.000
661.000	59.000
662.000	63.000
663.000	67.000
664.000	59.000
665.000	84.000
666.000	69.000
667.000	74.000
668.000	103.000
669.000	95.000
670.000	110.000
671.000	111.000
672.000	113.000
673.000	160.000
674.000	201.000
675.000	196.000
676.000	246.000
677.000	293.000
678.000	357.000
679.000	421.000
680.000	554.000
681.000	625.000
682.000	781.000
683.000	931.000
684.000	1058.000
685.000	1137.000
686.000	1244.000
687.000	1370.000
688.000	1442.000
689.000	1477.000
690.000	1452.000
691.000	1421.000
692.000	1393.000
693.000	1227.000
694.000	1068.000
695.000	861.000
696.000	773.000
697.000	625.000
698.000	540.000
699.000	439.000
700.000	312.000
701.000	282.000
702.000	235.000
703.000	194.000
704.000	131.000
705.000	94.000
706.000	96.000
707.000	68.000
708.000	71.000
709.000	55.000
710.000	52.000
711.000	68.000
712.000	67.000
713.000	67.000
714.000	66.000
715.000	75.000
716.000	69.000
717.000	76.000
718.000	63.000
719.000	89.000
720.000	79.000
721.000	87.000
722.000	73.000
723.000	83.000
724.000	91.000
725.000	91.000
726.000	102.000
727.000	106.000
728.000	117.000
729.000	85.000
730.000	86.000
731.000	90.000
732.000	99.000
733.000	116.000
734.000	94.000
735.000	93.000
736.000	82.000
737.000	86.000
738.000	87.000
739.000	97.000
740.000	69.000
741.000	83.000
742.000	72.000
743.000	59.000
744.000	71.000
745.000	72.000
746.000	79.000
747.000	80.000
748.000	52.000
749.000	68.000
750.000	69.000
751.000	71.000
752.000	67.000
753.000	61.000
754.000	75.000
755.000	71.000
756.000	52.000
757.000	59.000
758.000	81.000
759.000	92.000
760.000	84.000
761.000	75.000
762.000	94.000
763.000	75.000
764.000	71.000
765.000	74.000
766.000	85.000
767.000	85.000
768.000	92.000
769.000	80.000
770.000	70.000
771.000	93.000
772.000	118.000
773.000	95.000
774.000	92.000
775.000	122.000
776.000	88.000
777.000	97.000
778.000	88.000
779.000	114.000
780.000	101.000
781.000	117.000
782.000	116.000
783.000	138.000
784.000	145.000
785.000	119.000
786.000	140.000
787.000	126.000
788.000	162.000
789.000	145.000
790.000	162.000
791.000	146.000
792.000	127.000
793.000	122.000
794.000	143.000
795.000	159.000
796.000	168.000
797.000	177.000
798.000	164.000
799.000	152.000
800.000	138.000
801.000	153.000
802.000	151.000
803.000	147.000
804.000	188.000
805.000	155.000
806.000	173.000
807.000	170.000
808.000	176.000
809.000	184.000
810.000	226.000
811.000	216.000
812.000	230.000
813.000	243.000
814.000	256.000
815.000	267.000
816.000	294.000
817.000	282.000
818.000	264.000
819.000	299.000
820.000	306.000
821.000	289.000
822.000	284.000
823.000	280.000
824.000	246.000
825.000	256.000
826.000	236.000
827.000	198.000
828.000	184.000
829.000	191.000
830.000	195.000
831.000	146.000
832.000	151.000
833.000	157.000
834.000	145.000
835.000	147.000
836.000	133.000
837.000	143.000
838.000	145.000
839.000	140.000
840.000	150.000
841.000	158.000
842.000	168.000
843.000	168.000
844.000	154.000
845.000	122.000
846.000	169.000
847.000	151.000
848.000	144.000
849.000	155.000
850.000	142.000
851.000	129.000
852.000	150.000
853.000	130.000
854.000	119.000
855.000	163.000
856.000	133.000
857.000	121.000
858.000	120.000
859.000	113.000
860.000	109.000
861.000	106.000
862.000	113.000
863.000	127.000
864.000	122.000
865.000	111.000
866.000	133.000
867.000	124.000
868.000	115.000
869.000	127.000
870.000	112.000
871.000	135.000
872.000	146.000
873.000	120.000
874.000	118.000
875.000	134.000
876.000	127.000
877.000	101.000
878.000	135.000
879.000	129.000
880.000	132.000
881.000	128.000
882.000	147.000
883.000	127.000
884.000	126.000
885.000	124.000
886.000	142.000
887.000	142.000
888.000	134.000
889.000	138.000
890.000	136.000
891.000	138.000
892.000	135.000
893.000	143.000
894.000	156.000
895.000	167.000
896.000	160.000
897.000	151.000
898.000	170.000
899.000	158.000
900.000	178.000
901.000	168.000
902.000	154.000
903.000	188.000
904.000	174.000
905.000	199.000
906.000	168.000
907.000	187.000
908.000	174.000
909.000	176.000
910.000	213.000
911.000	196.000
912.000	175.000
913.000	188.000
914.000	181.000
915.000	202.000
916.000	186.000
917.000	184.000
918.000	183.000
919.000	200.000
920.000	214.000
921.000	194.000
922.000	184.000
923.000	215.000
924.000	179.000
925.000	171.000
926.000	190.000
927.000	211.000
928.000	220.000
929.000	197.000
930.000	228.000
931.000	210.000
932.000	228.000
933.000	217.000
934.000	235.000
935.000	219.000
936.000	240.000
937.000	277.000
938.000	251.000
939.000	265.000
940.000	251.000
941.000	274.000
942.000	265.000
943.000	274.000
944.000	251.000
945.000	234.000
946.000	277.000
947.000	273.000
948.000	273.000
949.000	254.000
950.000	225.000
951.000	244.000
952.000	230.000
953.000	224.000
954.000	184.000
955.000	201.000
956.000	201.000
957.000	215.000
958.000	201.000
959.000	189.000
960.000	184.000
961.000	183.000
962.000	216.000
963.000	207.000
964.000	155.000
965.000	180.000
966.000	178.000
967.000	199.000
968.000	197.000
969.000	214.000
970.000	200.000
971.000	172.000
972.000	216.000
973.000	217.000
974.000	200.000
975.000	212.000
976.000	181.000
977.000	177.000
978.000	199.000
979.000	171.000
980.000	187.000
981.000	176.000
982.000	183.000
983.000	175.000
984.000	169.000
985.000	150.000
986.000	168.000
987.000	157.000
988.000	164.000
989.000	187.000
990.000	164.000
991.000	148.000
992.000	155.000
993.000	187.000
994.000	163.000
995.000	150.000
996.000	157.000
997.000	140.000
998.000	149.000
999.000	157.000
1000.000	152.000
1001.000	166.000
1002.000	147.000
1003.000	133.000
1004.000	132.000
1005.000	139.000
1006.000	147.000
1007.000	142.000
1008.000	154.000
1009.000	135.000
1010.000	138.000
1011.000	127.000
1012.000	138.000
1013.000	150.000
1014.000	162.000
1015.000	139.000
1016.000	135.000
1017.000	143.000
1018.000	134.000
1019.000	157.000
1020.000	164.000
1021.000	159.000
1022.000	143.000
1023.000	146.000
1024.000	150.000
1025.000	149.000
1026.000	136.000
1027.000	157.000
1028.000	156.000
1029.000	156.000
1030.000	164.000
1031.000	167.000
1032.000	158.000
1033.000	131.000
1034.000	170.000
1035.000	139.000
1036.000	181.000
1037.000	168.000
1038.000	145.000
1039.000	158.000
1040.000	173.000
1041.000	146.000
1042.000	168.000
1043.000	161.000
1044.000	166.000
1045.000	175.000
1046.000	165.000
1047.000	175.000
1048.000	167.000
1049.000	146.000
1050.000	172.000
1051.000	169.000
1052.000	162.000
1053.000	179.000
1054.000	162.000
1055.000	175.000
1056.000	154.000
1057.000	192.000
1058.000	168.000
1059.000	164.000
1060.000	164.000
1061.000	169.000
1062.000	175.000
1063.000	174.000
1064.000	181.000
1065.000	188.000
1066.000	169.000
1067.000	144.000
1068.000	159.000
1069.000	169.000
1070.000	178.000
1071.000	174.000
1072.000	185.000
1073.000	152.000
1074.000	170.000
1075.000	192.000
1076.000	158.000
1077.000	167.000
1078.000	191.000
1079.000	153.000
1080.000	189.000
1081.000	147.000
1082.000	167.000
1083.000	175.000
1084.000	184.000
1085.000	172.000
1086.000	171.000
1087.000	181.000
1088.000	184.000
1089.000	162.000
1090.000	148.000
1091.000	171.000
1092.000	195.000
1093.000	160.000
1094.000	183.000
1095.000	183.000
1096.000	174.000
1097.000	194.000
1098.000	175.000
1099.000	193.000
1100.000	171.000
1101.000	171.000
1102.000	176.000
1103.000	183.000
1104.000	173.000
1105.000	201.000
1106.000	189.000
1107.000	163.000
1108.000	175.000
1109.000	173.000
1110.000	171.000
1111.000	154.000
1112.000	161.000
1113.000	176.000
1114.000	166.000
1115.000	188.000
1116.000	172.000
1117.000	159.000
1118.000	178.000
1119.000	183.000
1120.000	169.000
1121.000	184.000
1122.000	186.000
1123.000	178.000
1124.000	180.000
1125.000	180.000
1126.000	160.000
1127.000	153.000
1128.000	167.000
1129.000	162.000
1130.000	172.000
1131.000	179.000
1132.000	177.000
1133.000	185.000
1134.000	166.000
1135.000	189.000
1136.000	187.000
1137.000	186.000
1138.000	163.000
1139.000	189.000
1140.000	174.000
1141.000	173.000
1142.000	180.000
1143.000	185.000
1144.000	182.000
1145.000	197.000
1146.000	171.000
1147.000	183.000
1148.000	174.000
1149.000	199.000
1150.000	197.000
1151.000	195.000
1152.000	188.000
1153.000	187.000
1154.000	157.000
1155.000	166.000
