Date:	17-Sep-20		Time:	5:12 PM		Version no:	0.00		Project name:	55		Sample name:	222		Section name:	section		Position	33.215018	mm	E0	0.000000	keV	E1	1.000000	keV/channel	sample surface	6.972561	cm	Tube anode:	Mo		Tube voltage:	30	kV	Tube current:	30	mA	gain	15		std. database			resultfile	result		matrix element	11		sample thickness	1.000000		air passage	0.560000	cm	comments	in position		peaking_time	0.300000	m-sec	trigger_threshold	40.000000	V	mca_bin_width	2.000000	no:	number_mca_channels	2048.000000	no:	gap_time	2048.000000	m-sec	trigger_peaking_time	2048.000000	m-sec	GAINDAC	400		HIGHGAIN	400		TAURC	400		RCTAU	400		RCTAUFRAC	400		livetime	13.338868	seconds	runtime	15.000098	seconds	input_count_rate	48581.334210	cps	output_count_rate	43201.051086	cps	triggers	715848	seconds	events_in_run	630883	seconds	channel	content		1.000	0.000
2.000	0.000
3.000	0.000
4.000	0.000
5.000	0.000
6.000	0.000
7.000	0.000
8.000	0.000
9.000	0.000
10.000	0.000
11.000	0.000
12.000	0.000
13.000	0.000
14.000	0.000
15.000	0.000
16.000	0.000
17.000	0.000
18.000	0.000
19.000	0.000
20.000	0.000
21.000	0.000
22.000	0.000
23.000	0.000
24.000	0.000
25.000	0.000
26.000	0.000
27.000	0.000
28.000	0.000
29.000	0.000
30.000	0.000
31.000	0.000
32.000	0.000
33.000	0.000
34.000	0.000
35.000	0.000
36.000	0.000
37.000	2.000
38.000	0.000
39.000	1.000
40.000	0.000
41.000	2.000
42.000	0.000
43.000	0.000
44.000	0.000
45.000	0.000
46.000	0.000
47.000	0.000
48.000	0.000
49.000	0.000
50.000	1.000
51.000	0.000
52.000	3.000
53.000	5.000
54.000	7.000
55.000	2.000
56.000	9.000
57.000	8.000
58.000	8.000
59.000	24.000
60.000	28.000
61.000	24.000
62.000	34.000
63.000	43.000
64.000	26.000
65.000	29.000
66.000	32.000
67.000	37.000
68.000	25.000
69.000	34.000
70.000	25.000
71.000	17.000
72.000	26.000
73.000	32.000
74.000	26.000
75.000	24.000
76.000	22.000
77.000	17.000
78.000	24.000
79.000	21.000
80.000	24.000
81.000	23.000
82.000	25.000
83.000	31.000
84.000	25.000
85.000	26.000
86.000	26.000
87.000	27.000
88.000	35.000
89.000	19.000
90.000	25.000
91.000	16.000
92.000	23.000
93.000	27.000
94.000	17.000
95.000	23.000
96.000	20.000
97.000	24.000
98.000	24.000
99.000	24.000
100.000	15.000
101.000	20.000
102.000	21.000
103.000	18.000
104.000	23.000
105.000	24.000
106.000	21.000
107.000	13.000
108.000	18.000
109.000	22.000
110.000	16.000
111.000	16.000
112.000	21.000
113.000	13.000
114.000	17.000
115.000	16.000
116.000	17.000
117.000	14.000
118.000	13.000
119.000	17.000
120.000	19.000
121.000	21.000
122.000	14.000
123.000	16.000
124.000	9.000
125.000	13.000
126.000	12.000
127.000	10.000
128.000	14.000
129.000	16.000
130.000	23.000
131.000	10.000
132.000	12.000
133.000	14.000
134.000	11.000
135.000	15.000
136.000	17.000
137.000	20.000
138.000	18.000
139.000	10.000
140.000	15.000
141.000	21.000
142.000	21.000
143.000	36.000
144.000	33.000
145.000	46.000
146.000	26.000
147.000	30.000
148.000	27.000
149.000	33.000
150.000	30.000
151.000	26.000
152.000	30.000
153.000	23.000
154.000	24.000
155.000	22.000
156.000	24.000
157.000	10.000
158.000	14.000
159.000	17.000
160.000	15.000
161.000	20.000
162.000	23.000
163.000	21.000
164.000	36.000
165.000	63.000
166.000	63.000
167.000	112.000
168.000	119.000
169.000	120.000
170.000	173.000
171.000	183.000
172.000	154.000
173.000	135.000
174.000	95.000
175.000	98.000
176.000	70.000
177.000	53.000
178.000	47.000
179.000	38.000
180.000	18.000
181.000	26.000
182.000	26.000
183.000	17.000
184.000	24.000
185.000	32.000
186.000	42.000
187.000	46.000
188.000	30.000
189.000	45.000
190.000	53.000
191.000	50.000
192.000	47.000
193.000	52.000
194.000	46.000
195.000	33.000
196.000	38.000
197.000	37.000
198.000	21.000
199.000	15.000
200.000	18.000
201.000	9.000
202.000	14.000
203.000	11.000
204.000	5.000
205.000	9.000
206.000	13.000
207.000	14.000
208.000	5.000
209.000	6.000
210.000	8.000
211.000	9.000
212.000	15.000
213.000	18.000
214.000	10.000
215.000	12.000
216.000	10.000
217.000	19.000
218.000	19.000
219.000	14.000
220.000	12.000
221.000	13.000
222.000	18.000
223.000	12.000
224.000	24.000
225.000	18.000
226.000	19.000
227.000	12.000
228.000	15.000
229.000	15.000
230.000	12.000
231.000	12.000
232.000	8.000
233.000	11.000
234.000	7.000
235.000	11.000
236.000	10.000
237.000	6.000
238.000	12.000
239.000	10.000
240.000	6.000
241.000	8.000
242.000	8.000
243.000	11.000
244.000	12.000
245.000	20.000
246.000	19.000
247.000	12.000
248.000	18.000
249.000	18.000
250.000	28.000
251.000	36.000
252.000	48.000
253.000	52.000
254.000	64.000
255.000	81.000
256.000	74.000
257.000	84.000
258.000	88.000
259.000	89.000
260.000	79.000
261.000	66.000
262.000	59.000
263.000	36.000
264.000	27.000
265.000	23.000
266.000	27.000
267.000	25.000
268.000	23.000
269.000	21.000
270.000	23.000
271.000	19.000
272.000	20.000
273.000	27.000
274.000	26.000
275.000	21.000
276.000	22.000
277.000	20.000
278.000	15.000
279.000	25.000
280.000	13.000
281.000	23.000
282.000	26.000
283.000	24.000
284.000	24.000
285.000	40.000
286.000	49.000
287.000	50.000
288.000	45.000
289.000	50.000
290.000	74.000
291.000	50.000
292.000	40.000
293.000	56.000
294.000	42.000
295.000	31.000
296.000	32.000
297.000	26.000
298.000	14.000
299.000	4.000
300.000	9.000
301.000	17.000
302.000	16.000
303.000	8.000
304.000	13.000
305.000	11.000
306.000	21.000
307.000	11.000
308.000	12.000
309.000	17.000
310.000	29.000
311.000	37.000
312.000	49.000
313.000	50.000
314.000	75.000
315.000	110.000
316.000	162.000
317.000	249.000
318.000	309.000
319.000	438.000
320.000	540.000
321.000	642.000
322.000	733.000
323.000	816.000
324.000	871.000
325.000	894.000
326.000	846.000
327.000	773.000
328.000	647.000
329.000	547.000
330.000	435.000
331.000	322.000
332.000	245.000
333.000	145.000
334.000	109.000
335.000	53.000
336.000	39.000
337.000	32.000
338.000	37.000
339.000	19.000
340.000	23.000
341.000	23.000
342.000	31.000
343.000	51.000
344.000	57.000
345.000	70.000
346.000	83.000
347.000	137.000
348.000	186.000
349.000	232.000
350.000	327.000
351.000	412.000
352.000	575.000
353.000	759.000
354.000	994.000
355.000	1332.000
356.000	1768.000
357.000	2146.000
358.000	2577.000
359.000	2944.000
360.000	3088.000
361.000	3242.000
362.000	3204.000
363.000	3053.000
364.000	2845.000
365.000	2387.000
366.000	2023.000
367.000	1583.000
368.000	1192.000
369.000	829.000
370.000	602.000
371.000	342.000
372.000	248.000
373.000	142.000
374.000	92.000
375.000	77.000
376.000	39.000
377.000	30.000
378.000	24.000
379.000	29.000
380.000	39.000
381.000	52.000
382.000	59.000
383.000	63.000
384.000	114.000
385.000	147.000
386.000	207.000
387.000	236.000
388.000	301.000
389.000	373.000
390.000	414.000
391.000	446.000
392.000	466.000
393.000	467.000
394.000	498.000
395.000	462.000
396.000	382.000
397.000	323.000
398.000	287.000
399.000	212.000
400.000	167.000
401.000	124.000
402.000	93.000
403.000	62.000
404.000	42.000
405.000	24.000
406.000	28.000
407.000	19.000
408.000	10.000
409.000	8.000
410.000	10.000
411.000	11.000
412.000	12.000
413.000	13.000
414.000	10.000
415.000	10.000
416.000	5.000
417.000	12.000
418.000	12.000
419.000	9.000
420.000	11.000
421.000	18.000
422.000	16.000
423.000	11.000
424.000	15.000
425.000	25.000
426.000	29.000
427.000	24.000
428.000	55.000
429.000	76.000
430.000	127.000
431.000	149.000
432.000	225.000
433.000	286.000
434.000	407.000
435.000	486.000
436.000	618.000
437.000	812.000
438.000	872.000
439.000	970.000
440.000	1074.000
441.000	1070.000
442.000	1072.000
443.000	971.000
444.000	902.000
445.000	837.000
446.000	709.000
447.000	519.000
448.000	433.000
449.000	362.000
450.000	240.000
451.000	212.000
452.000	156.000
453.000	117.000
454.000	131.000
455.000	93.000
456.000	94.000
457.000	68.000
458.000	67.000
459.000	58.000
460.000	53.000
461.000	45.000
462.000	38.000
463.000	41.000
464.000	39.000
465.000	40.000
466.000	36.000
467.000	40.000
468.000	37.000
469.000	38.000
470.000	47.000
471.000	63.000
472.000	79.000
473.000	80.000
474.000	112.000
475.000	126.000
476.000	116.000
477.000	144.000
478.000	158.000
479.000	170.000
480.000	196.000
481.000	180.000
482.000	211.000
483.000	184.000
484.000	226.000
485.000	172.000
486.000	187.000
487.000	170.000
488.000	134.000
489.000	123.000
490.000	98.000
491.000	54.000
492.000	69.000
493.000	45.000
494.000	40.000
495.000	32.000
496.000	42.000
497.000	27.000
498.000	26.000
499.000	24.000
500.000	31.000
501.000	21.000
502.000	28.000
503.000	27.000
504.000	21.000
505.000	24.000
506.000	35.000
507.000	37.000
508.000	35.000
509.000	41.000
510.000	48.000
511.000	46.000
512.000	39.000
513.000	37.000
514.000	51.000
515.000	42.000
516.000	55.000
517.000	46.000
518.000	39.000
519.000	42.000
520.000	43.000
521.000	45.000
522.000	55.000
523.000	44.000
524.000	81.000
525.000	61.000
526.000	68.000
527.000	78.000
528.000	75.000
529.000	79.000
530.000	63.000
531.000	74.000
532.000	74.000
533.000	67.000
534.000	51.000
535.000	61.000
536.000	56.000
537.000	45.000
538.000	38.000
539.000	44.000
540.000	56.000
541.000	30.000
542.000	33.000
543.000	36.000
544.000	47.000
545.000	41.000
546.000	29.000
547.000	48.000
548.000	26.000
549.000	33.000
550.000	35.000
551.000	45.000
552.000	36.000
553.000	52.000
554.000	44.000
555.000	30.000
556.000	51.000
557.000	46.000
558.000	36.000
559.000	56.000
560.000	43.000
561.000	50.000
562.000	69.000
563.000	65.000
564.000	73.000
565.000	90.000
566.000	90.000
567.000	116.000
568.000	149.000
569.000	192.000
570.000	258.000
571.000	280.000
572.000	313.000
573.000	343.000
574.000	372.000
575.000	393.000
576.000	383.000
577.000	388.000
578.000	363.000
579.000	325.000
580.000	295.000
581.000	279.000
582.000	230.000
583.000	192.000
584.000	174.000
585.000	169.000
586.000	129.000
587.000	117.000
588.000	78.000
589.000	69.000
590.000	59.000
591.000	71.000
592.000	57.000
593.000	58.000
594.000	64.000
595.000	55.000
596.000	70.000
597.000	55.000
598.000	74.000
599.000	75.000
600.000	59.000
601.000	92.000
602.000	85.000
603.000	93.000
604.000	108.000
605.000	110.000
606.000	143.000
607.000	231.000
608.000	269.000
609.000	370.000
610.000	561.000
611.000	829.000
612.000	1145.000
613.000	1639.000
614.000	2261.000
615.000	3127.000
616.000	4236.000
617.000	5291.000
618.000	6821.000
619.000	8169.000
620.000	9634.000
621.000	11195.000
622.000	12652.000
623.000	13490.000
624.000	14229.000
625.000	14408.000
626.000	14713.000
627.000	14045.000
628.000	13105.000
629.000	11991.000
630.000	10656.000
631.000	8996.000
632.000	7712.000
633.000	6176.000
634.000	4765.000
635.000	3681.000
636.000	2746.000
637.000	1994.000
638.000	1436.000
639.000	996.000
640.000	644.000
641.000	451.000
642.000	304.000
643.000	231.000
644.000	172.000
645.000	144.000
646.000	126.000
647.000	84.000
648.000	87.000
649.000	79.000
650.000	86.000
651.000	78.000
652.000	77.000
653.000	90.000
654.000	83.000
655.000	90.000
656.000	77.000
657.000	96.000
658.000	87.000
659.000	89.000
660.000	97.000
661.000	110.000
662.000	98.000
663.000	109.000
664.000	83.000
665.000	111.000
666.000	118.000
667.000	117.000
668.000	115.000
669.000	123.000
670.000	130.000
671.000	151.000
672.000	185.000
673.000	197.000
674.000	248.000
675.000	262.000
676.000	361.000
677.000	437.000
678.000	542.000
679.000	705.000
680.000	860.000
681.000	1115.000
682.000	1228.000
683.000	1452.000
684.000	1711.000
685.000	1888.000
686.000	2076.000
687.000	2302.000
688.000	2304.000
689.000	2372.000
690.000	2327.000
691.000	2277.000
692.000	2120.000
693.000	1941.000
694.000	1744.000
695.000	1529.000
696.000	1290.000
697.000	1010.000
698.000	846.000
699.000	688.000
700.000	568.000
701.000	395.000
702.000	316.000
703.000	283.000
704.000	180.000
705.000	163.000
706.000	106.000
707.000	98.000
708.000	84.000
709.000	81.000
710.000	77.000
711.000	72.000
712.000	66.000
713.000	62.000
714.000	65.000
715.000	76.000
716.000	63.000
717.000	105.000
718.000	84.000
719.000	64.000
720.000	77.000
721.000	85.000
722.000	93.000
723.000	92.000
724.000	74.000
725.000	88.000
726.000	111.000
727.000	92.000
728.000	111.000
729.000	77.000
730.000	105.000
731.000	115.000
732.000	96.000
733.000	92.000
734.000	108.000
735.000	95.000
736.000	105.000
737.000	93.000
738.000	72.000
739.000	83.000
740.000	67.000
741.000	89.000
742.000	84.000
743.000	74.000
744.000	88.000
745.000	87.000
746.000	87.000
747.000	87.000
748.000	73.000
749.000	86.000
750.000	75.000
751.000	84.000
752.000	91.000
753.000	70.000
754.000	86.000
755.000	93.000
756.000	71.000
757.000	90.000
758.000	86.000
759.000	97.000
760.000	83.000
761.000	71.000
762.000	75.000
763.000	93.000
764.000	83.000
765.000	104.000
766.000	98.000
767.000	91.000
768.000	91.000
769.000	92.000
770.000	105.000
771.000	90.000
772.000	88.000
773.000	103.000
774.000	98.000
775.000	109.000
776.000	104.000
777.000	100.000
778.000	121.000
779.000	120.000
780.000	126.000
781.000	151.000
782.000	125.000
783.000	135.000
784.000	187.000
785.000	142.000
786.000	164.000
787.000	163.000
788.000	160.000
789.000	177.000
790.000	170.000
791.000	153.000
792.000	178.000
793.000	155.000
794.000	150.000
795.000	181.000
796.000	179.000
797.000	169.000
798.000	186.000
799.000	185.000
800.000	194.000
801.000	183.000
802.000	175.000
803.000	179.000
804.000	190.000
805.000	170.000
806.000	157.000
807.000	183.000
808.000	180.000
809.000	212.000
810.000	247.000
811.000	226.000
812.000	288.000
813.000	257.000
814.000	305.000
815.000	307.000
816.000	343.000
817.000	348.000
818.000	323.000
819.000	316.000
820.000	317.000
821.000	305.000
822.000	289.000
823.000	304.000
824.000	262.000
825.000	271.000
826.000	253.000
827.000	237.000
828.000	205.000
829.000	198.000
830.000	196.000
831.000	168.000
832.000	184.000
833.000	163.000
834.000	136.000
835.000	171.000
836.000	148.000
837.000	156.000
838.000	176.000
839.000	188.000
840.000	173.000
841.000	192.000
842.000	206.000
843.000	199.000
844.000	168.000
845.000	181.000
846.000	178.000
847.000	161.000
848.000	187.000
849.000	153.000
850.000	162.000
851.000	177.000
852.000	160.000
853.000	163.000
854.000	149.000
855.000	142.000
856.000	143.000
857.000	123.000
858.000	119.000
859.000	109.000
860.000	133.000
861.000	123.000
862.000	142.000
863.000	147.000
864.000	136.000
865.000	140.000
866.000	150.000
867.000	128.000
868.000	125.000
869.000	150.000
870.000	151.000
871.000	124.000
872.000	126.000
873.000	135.000
874.000	129.000
875.000	134.000
876.000	148.000
877.000	137.000
878.000	120.000
879.000	134.000
880.000	145.000
881.000	141.000
882.000	136.000
883.000	129.000
884.000	150.000
885.000	130.000
886.000	141.000
887.000	146.000
888.000	174.000
889.000	157.000
890.000	153.000
891.000	151.000
892.000	163.000
893.000	172.000
894.000	162.000
895.000	179.000
896.000	167.000
897.000	185.000
898.000	183.000
899.000	169.000
900.000	157.000
901.000	166.000
902.000	182.000
903.000	197.000
904.000	195.000
905.000	199.000
906.000	199.000
907.000	190.000
908.000	191.000
909.000	206.000
910.000	172.000
911.000	190.000
912.000	195.000
913.000	197.000
914.000	211.000
915.000	195.000
916.000	193.000
917.000	216.000
918.000	210.000
919.000	217.000
920.000	212.000
921.000	174.000
922.000	226.000
923.000	233.000
924.000	201.000
925.000	218.000
926.000	204.000
927.000	222.000
928.000	244.000
929.000	211.000
930.000	260.000
931.000	228.000
932.000	249.000
933.000	266.000
934.000	264.000
935.000	285.000
936.000	258.000
937.000	274.000
938.000	279.000
939.000	253.000
940.000	287.000
941.000	278.000
942.000	272.000
943.000	286.000
944.000	291.000
945.000	280.000
946.000	277.000
947.000	293.000
948.000	259.000
949.000	262.000
950.000	263.000
951.000	249.000
952.000	261.000
953.000	237.000
954.000	222.000
955.000	217.000
956.000	242.000
957.000	209.000
958.000	212.000
959.000	205.000
960.000	189.000
961.000	189.000
962.000	209.000
963.000	191.000
964.000	206.000
965.000	206.000
966.000	203.000
967.000	181.000
968.000	217.000
969.000	206.000
970.000	200.000
971.000	216.000
972.000	191.000
973.000	212.000
974.000	202.000
975.000	199.000
976.000	189.000
977.000	174.000
978.000	204.000
979.000	199.000
980.000	183.000
981.000	177.000
982.000	159.000
983.000	178.000
984.000	186.000
985.000	171.000
986.000	173.000
987.000	153.000
988.000	142.000
989.000	156.000
990.000	185.000
991.000	176.000
992.000	144.000
993.000	176.000
994.000	163.000
995.000	167.000
996.000	163.000
997.000	156.000
998.000	141.000
999.000	150.000
1000.000	146.000
1001.000	151.000
1002.000	169.000
1003.000	176.000
1004.000	169.000
1005.000	149.000
1006.000	152.000
1007.000	149.000
1008.000	132.000
1009.000	148.000
1010.000	164.000
1011.000	160.000
1012.000	133.000
1013.000	149.000
1014.000	162.000
1015.000	167.000
1016.000	125.000
1017.000	175.000
1018.000	152.000
1019.000	141.000
1020.000	160.000
1021.000	156.000
1022.000	158.000
1023.000	134.000
1024.000	145.000
1025.000	131.000
1026.000	152.000
1027.000	182.000
1028.000	164.000
1029.000	159.000
1030.000	170.000
1031.000	167.000
1032.000	148.000
1033.000	170.000
1034.000	137.000
1035.000	179.000
1036.000	155.000
1037.000	134.000
1038.000	169.000
1039.000	158.000
1040.000	171.000
1041.000	161.000
1042.000	158.000
1043.000	174.000
1044.000	194.000
1045.000	164.000
1046.000	170.000
1047.000	181.000
1048.000	188.000
1049.000	146.000
1050.000	152.000
1051.000	176.000
1052.000	159.000
1053.000	172.000
1054.000	189.000
1055.000	162.000
1056.000	187.000
1057.000	171.000
1058.000	172.000
1059.000	140.000
1060.000	187.000
1061.000	167.000
1062.000	173.000
1063.000	195.000
1064.000	176.000
1065.000	194.000
1066.000	152.000
1067.000	164.000
1068.000	194.000
1069.000	177.000
1070.000	188.000
1071.000	164.000
1072.000	204.000
1073.000	183.000
1074.000	187.000
1075.000	158.000
1076.000	196.000
1077.000	154.000
1078.000	178.000
1079.000	186.000
1080.000	184.000
1081.000	167.000
1082.000	173.000
1083.000	180.000
1084.000	183.000
1085.000	184.000
1086.000	165.000
1087.000	177.000
1088.000	184.000
1089.000	184.000
1090.000	199.000
1091.000	182.000
1092.000	181.000
1093.000	189.000
1094.000	175.000
1095.000	177.000
1096.000	169.000
1097.000	183.000
1098.000	192.000
1099.000	185.000
1100.000	198.000
1101.000	205.000
1102.000	187.000
1103.000	185.000
1104.000	190.000
1105.000	207.000
1106.000	186.000
1107.000	205.000
1108.000	168.000
1109.000	172.000
1110.000	219.000
1111.000	164.000
1112.000	179.000
1113.000	158.000
1114.000	170.000
1115.000	175.000
1116.000	178.000
1117.000	187.000
1118.000	172.000
1119.000	170.000
1120.000	181.000
1121.000	197.000
1122.000	191.000
1123.000	167.000
1124.000	185.000
1125.000	207.000
1126.000	191.000
1127.000	166.000
1128.000	196.000
1129.000	168.000
1130.000	175.000
1131.000	168.000
1132.000	176.000
1133.000	171.000
1134.000	181.000
1135.000	155.000
1136.000	181.000
1137.000	174.000
1138.000	204.000
1139.000	200.000
1140.000	163.000
1141.000	174.000
1142.000	173.000
1143.000	155.000
1144.000	187.000
1145.000	201.000
1146.000	199.000
1147.000	199.000
1148.000	160.000
1149.000	171.000
1150.000	200.000
1151.000	197.000
1152.000	203.000
1153.000	196.000
1154.000	213.000
