Date:	17-Sep-20		Time:	8:17 PM		Version no:	0.00		Project name:	55		Sample name:	222		Section name:	section		Position	727.215018	mm	E0	0.000000	keV	E1	1.000000	keV/channel	sample surface	7.035744	cm	Tube anode:	Mo		Tube voltage:	30	kV	Tube current:	30	mA	gain	15		std. database			resultfile	result		matrix element	11		sample thickness	1.000000		air passage	0.560000	cm	comments	in position		peaking_time	0.300000	m-sec	trigger_threshold	40.000000	V	mca_bin_width	2.000000	no:	number_mca_channels	2048.000000	no:	gap_time	2048.000000	m-sec	trigger_peaking_time	2048.000000	m-sec	GAINDAC	400		HIGHGAIN	400		TAURC	400		RCTAU	400		RCTAUFRAC	400		livetime	13.459987	seconds	runtime	15.000288	seconds	input_count_rate	44660.220533	cps	output_count_rate	40074.295904	cps	triggers	659638	seconds	events_in_run	585993	seconds	channel	content		1.000	0.000
2.000	0.000
3.000	0.000
4.000	0.000
5.000	0.000
6.000	0.000
7.000	0.000
8.000	0.000
9.000	0.000
10.000	0.000
11.000	0.000
12.000	0.000
13.000	0.000
14.000	0.000
15.000	0.000
16.000	0.000
17.000	0.000
18.000	0.000
19.000	0.000
20.000	0.000
21.000	0.000
22.000	0.000
23.000	0.000
24.000	0.000
25.000	0.000
26.000	0.000
27.000	0.000
28.000	0.000
29.000	0.000
30.000	0.000
31.000	1.000
32.000	0.000
33.000	0.000
34.000	2.000
35.000	0.000
36.000	0.000
37.000	1.000
38.000	1.000
39.000	0.000
40.000	0.000
41.000	0.000
42.000	0.000
43.000	0.000
44.000	0.000
45.000	0.000
46.000	0.000
47.000	2.000
48.000	0.000
49.000	1.000
50.000	1.000
51.000	1.000
52.000	4.000
53.000	2.000
54.000	4.000
55.000	3.000
56.000	7.000
57.000	4.000
58.000	13.000
59.000	21.000
60.000	24.000
61.000	29.000
62.000	24.000
63.000	28.000
64.000	36.000
65.000	20.000
66.000	28.000
67.000	29.000
68.000	30.000
69.000	33.000
70.000	22.000
71.000	33.000
72.000	32.000
73.000	19.000
74.000	9.000
75.000	30.000
76.000	22.000
77.000	27.000
78.000	18.000
79.000	18.000
80.000	27.000
81.000	25.000
82.000	27.000
83.000	27.000
84.000	26.000
85.000	21.000
86.000	29.000
87.000	29.000
88.000	15.000
89.000	20.000
90.000	38.000
91.000	20.000
92.000	17.000
93.000	18.000
94.000	22.000
95.000	29.000
96.000	21.000
97.000	19.000
98.000	22.000
99.000	21.000
100.000	20.000
101.000	16.000
102.000	24.000
103.000	15.000
104.000	27.000
105.000	19.000
106.000	22.000
107.000	12.000
108.000	24.000
109.000	16.000
110.000	20.000
111.000	23.000
112.000	23.000
113.000	19.000
114.000	23.000
115.000	19.000
116.000	15.000
117.000	17.000
118.000	19.000
119.000	16.000
120.000	19.000
121.000	14.000
122.000	15.000
123.000	18.000
124.000	24.000
125.000	17.000
126.000	14.000
127.000	22.000
128.000	26.000
129.000	13.000
130.000	16.000
131.000	20.000
132.000	12.000
133.000	17.000
134.000	17.000
135.000	15.000
136.000	11.000
137.000	16.000
138.000	19.000
139.000	24.000
140.000	20.000
141.000	23.000
142.000	23.000
143.000	15.000
144.000	24.000
145.000	18.000
146.000	32.000
147.000	24.000
148.000	17.000
149.000	14.000
150.000	17.000
151.000	14.000
152.000	21.000
153.000	24.000
154.000	30.000
155.000	16.000
156.000	16.000
157.000	11.000
158.000	19.000
159.000	14.000
160.000	17.000
161.000	10.000
162.000	15.000
163.000	13.000
164.000	17.000
165.000	35.000
166.000	41.000
167.000	35.000
168.000	43.000
169.000	52.000
170.000	63.000
171.000	49.000
172.000	64.000
173.000	54.000
174.000	49.000
175.000	45.000
176.000	38.000
177.000	40.000
178.000	27.000
179.000	24.000
180.000	30.000
181.000	39.000
182.000	40.000
183.000	55.000
184.000	53.000
185.000	92.000
186.000	88.000
187.000	133.000
188.000	152.000
189.000	158.000
190.000	183.000
191.000	200.000
192.000	197.000
193.000	182.000
194.000	138.000
195.000	95.000
196.000	77.000
197.000	64.000
198.000	38.000
199.000	38.000
200.000	25.000
201.000	18.000
202.000	22.000
203.000	15.000
204.000	12.000
205.000	10.000
206.000	11.000
207.000	7.000
208.000	16.000
209.000	13.000
210.000	9.000
211.000	13.000
212.000	10.000
213.000	20.000
214.000	12.000
215.000	16.000
216.000	18.000
217.000	20.000
218.000	27.000
219.000	33.000
220.000	32.000
221.000	36.000
222.000	39.000
223.000	40.000
224.000	31.000
225.000	34.000
226.000	33.000
227.000	25.000
228.000	32.000
229.000	18.000
230.000	19.000
231.000	13.000
232.000	16.000
233.000	12.000
234.000	15.000
235.000	15.000
236.000	15.000
237.000	10.000
238.000	9.000
239.000	16.000
240.000	10.000
241.000	10.000
242.000	10.000
243.000	12.000
244.000	18.000
245.000	16.000
246.000	11.000
247.000	20.000
248.000	24.000
249.000	34.000
250.000	37.000
251.000	60.000
252.000	74.000
253.000	101.000
254.000	121.000
255.000	138.000
256.000	138.000
257.000	151.000
258.000	141.000
259.000	142.000
260.000	119.000
261.000	99.000
262.000	68.000
263.000	69.000
264.000	42.000
265.000	27.000
266.000	30.000
267.000	15.000
268.000	22.000
269.000	20.000
270.000	11.000
271.000	27.000
272.000	14.000
273.000	19.000
274.000	19.000
275.000	26.000
276.000	29.000
277.000	31.000
278.000	32.000
279.000	24.000
280.000	35.000
281.000	30.000
282.000	32.000
283.000	37.000
284.000	54.000
285.000	48.000
286.000	52.000
287.000	57.000
288.000	82.000
289.000	76.000
290.000	71.000
291.000	80.000
292.000	70.000
293.000	70.000
294.000	71.000
295.000	47.000
296.000	42.000
297.000	28.000
298.000	29.000
299.000	25.000
300.000	19.000
301.000	15.000
302.000	19.000
303.000	11.000
304.000	16.000
305.000	20.000
306.000	17.000
307.000	17.000
308.000	17.000
309.000	22.000
310.000	23.000
311.000	43.000
312.000	42.000
313.000	47.000
314.000	56.000
315.000	81.000
316.000	97.000
317.000	140.000
318.000	153.000
319.000	175.000
320.000	257.000
321.000	327.000
322.000	377.000
323.000	419.000
324.000	459.000
325.000	478.000
326.000	393.000
327.000	366.000
328.000	341.000
329.000	277.000
330.000	221.000
331.000	160.000
332.000	123.000
333.000	88.000
334.000	65.000
335.000	48.000
336.000	44.000
337.000	29.000
338.000	34.000
339.000	33.000
340.000	38.000
341.000	39.000
342.000	50.000
343.000	48.000
344.000	82.000
345.000	125.000
346.000	177.000
347.000	225.000
348.000	418.000
349.000	580.000
350.000	891.000
351.000	1471.000
352.000	2164.000
353.000	3090.000
354.000	4470.000
355.000	6027.000
356.000	8043.000
357.000	9797.000
358.000	11907.000
359.000	13538.000
360.000	14916.000
361.000	15417.000
362.000	15486.000
363.000	14618.000
364.000	13156.000
365.000	11468.000
366.000	9572.000
367.000	7285.000
368.000	5447.000
369.000	4015.000
370.000	2726.000
371.000	1857.000
372.000	1091.000
373.000	730.000
374.000	430.000
375.000	260.000
376.000	168.000
377.000	129.000
378.000	134.000
379.000	141.000
380.000	157.000
381.000	213.000
382.000	276.000
383.000	375.000
384.000	540.000
385.000	700.000
386.000	922.000
387.000	1156.000
388.000	1478.000
389.000	1704.000
390.000	1949.000
391.000	2246.000
392.000	2353.000
393.000	2262.000
394.000	2197.000
395.000	2087.000
396.000	1816.000
397.000	1634.000
398.000	1345.000
399.000	994.000
400.000	729.000
401.000	551.000
402.000	374.000
403.000	261.000
404.000	147.000
405.000	106.000
406.000	64.000
407.000	42.000
408.000	23.000
409.000	21.000
410.000	17.000
411.000	10.000
412.000	10.000
413.000	9.000
414.000	15.000
415.000	6.000
416.000	6.000
417.000	2.000
418.000	7.000
419.000	6.000
420.000	8.000
421.000	12.000
422.000	11.000
423.000	8.000
424.000	14.000
425.000	9.000
426.000	10.000
427.000	10.000
428.000	19.000
429.000	24.000
430.000	31.000
431.000	52.000
432.000	64.000
433.000	70.000
434.000	91.000
435.000	108.000
436.000	145.000
437.000	152.000
438.000	179.000
439.000	216.000
440.000	217.000
441.000	223.000
442.000	220.000
443.000	199.000
444.000	202.000
445.000	176.000
446.000	119.000
447.000	114.000
448.000	117.000
449.000	86.000
450.000	54.000
451.000	52.000
452.000	49.000
453.000	37.000
454.000	41.000
455.000	40.000
456.000	36.000
457.000	39.000
458.000	37.000
459.000	30.000
460.000	27.000
461.000	20.000
462.000	24.000
463.000	22.000
464.000	22.000
465.000	15.000
466.000	17.000
467.000	17.000
468.000	15.000
469.000	14.000
470.000	15.000
471.000	15.000
472.000	13.000
473.000	18.000
474.000	40.000
475.000	33.000
476.000	36.000
477.000	41.000
478.000	45.000
479.000	51.000
480.000	49.000
481.000	45.000
482.000	56.000
483.000	53.000
484.000	57.000
485.000	41.000
486.000	30.000
487.000	38.000
488.000	32.000
489.000	27.000
490.000	25.000
491.000	30.000
492.000	17.000
493.000	23.000
494.000	19.000
495.000	18.000
496.000	16.000
497.000	14.000
498.000	13.000
499.000	15.000
500.000	14.000
501.000	13.000
502.000	20.000
503.000	18.000
504.000	20.000
505.000	19.000
506.000	15.000
507.000	17.000
508.000	17.000
509.000	16.000
510.000	20.000
511.000	27.000
512.000	24.000
513.000	23.000
514.000	25.000
515.000	23.000
516.000	31.000
517.000	26.000
518.000	34.000
519.000	53.000
520.000	29.000
521.000	30.000
522.000	42.000
523.000	30.000
524.000	33.000
525.000	38.000
526.000	40.000
527.000	46.000
528.000	53.000
529.000	41.000
530.000	36.000
531.000	38.000
532.000	39.000
533.000	43.000
534.000	37.000
535.000	41.000
536.000	30.000
537.000	26.000
538.000	32.000
539.000	27.000
540.000	20.000
541.000	25.000
542.000	32.000
543.000	21.000
544.000	22.000
545.000	27.000
546.000	26.000
547.000	34.000
548.000	19.000
549.000	32.000
550.000	31.000
551.000	20.000
552.000	30.000
553.000	29.000
554.000	29.000
555.000	17.000
556.000	17.000
557.000	26.000
558.000	26.000
559.000	30.000
560.000	28.000
561.000	52.000
562.000	37.000
563.000	27.000
564.000	33.000
565.000	46.000
566.000	37.000
567.000	56.000
568.000	44.000
569.000	74.000
570.000	83.000
571.000	69.000
572.000	105.000
573.000	85.000
574.000	108.000
575.000	115.000
576.000	105.000
577.000	117.000
578.000	113.000
579.000	109.000
580.000	100.000
581.000	94.000
582.000	64.000
583.000	73.000
584.000	55.000
585.000	61.000
586.000	52.000
587.000	52.000
588.000	49.000
589.000	38.000
590.000	25.000
591.000	41.000
592.000	33.000
593.000	29.000
594.000	24.000
595.000	35.000
596.000	17.000
597.000	35.000
598.000	29.000
599.000	24.000
600.000	46.000
601.000	48.000
602.000	33.000
603.000	53.000
604.000	57.000
605.000	63.000
606.000	73.000
607.000	86.000
608.000	109.000
609.000	178.000
610.000	247.000
611.000	338.000
612.000	481.000
613.000	667.000
614.000	840.000
615.000	1167.000
616.000	1523.000
617.000	2081.000
618.000	2507.000
619.000	3146.000
620.000	3748.000
621.000	4334.000
622.000	4757.000
623.000	5198.000
624.000	5412.000
625.000	5530.000
626.000	5597.000
627.000	5259.000
628.000	5121.000
629.000	4565.000
630.000	4055.000
631.000	3562.000
632.000	2828.000
633.000	2318.000
634.000	1866.000
635.000	1416.000
636.000	1001.000
637.000	787.000
638.000	566.000
639.000	369.000
640.000	298.000
641.000	238.000
642.000	154.000
643.000	99.000
644.000	100.000
645.000	64.000
646.000	72.000
647.000	58.000
648.000	54.000
649.000	50.000
650.000	53.000
651.000	54.000
652.000	59.000
653.000	76.000
654.000	56.000
655.000	64.000
656.000	63.000
657.000	57.000
658.000	68.000
659.000	58.000
660.000	50.000
661.000	61.000
662.000	55.000
663.000	58.000
664.000	59.000
665.000	75.000
666.000	70.000
667.000	64.000
668.000	81.000
669.000	82.000
670.000	93.000
671.000	98.000
672.000	97.000
673.000	107.000
674.000	130.000
675.000	140.000
676.000	195.000
677.000	211.000
678.000	284.000
679.000	340.000
680.000	373.000
681.000	453.000
682.000	542.000
683.000	593.000
684.000	682.000
685.000	741.000
686.000	859.000
687.000	871.000
688.000	865.000
689.000	947.000
690.000	910.000
691.000	901.000
692.000	867.000
693.000	771.000
694.000	726.000
695.000	593.000
696.000	527.000
697.000	440.000
698.000	377.000
699.000	325.000
700.000	244.000
701.000	158.000
702.000	177.000
703.000	138.000
704.000	98.000
705.000	94.000
706.000	79.000
707.000	65.000
708.000	73.000
709.000	51.000
710.000	42.000
711.000	57.000
712.000	58.000
713.000	54.000
714.000	72.000
715.000	85.000
716.000	75.000
717.000	82.000
718.000	66.000
719.000	83.000
720.000	92.000
721.000	84.000
722.000	93.000
723.000	81.000
724.000	72.000
725.000	94.000
726.000	84.000
727.000	90.000
728.000	82.000
729.000	100.000
730.000	81.000
731.000	96.000
732.000	85.000
733.000	82.000
734.000	86.000
735.000	76.000
736.000	61.000
737.000	80.000
738.000	60.000
739.000	69.000
740.000	62.000
741.000	59.000
742.000	69.000
743.000	53.000
744.000	77.000
745.000	85.000
746.000	64.000
747.000	60.000
748.000	69.000
749.000	75.000
750.000	64.000
751.000	69.000
752.000	60.000
753.000	61.000
754.000	79.000
755.000	79.000
756.000	64.000
757.000	68.000
758.000	62.000
759.000	81.000
760.000	73.000
761.000	80.000
762.000	73.000
763.000	66.000
764.000	84.000
765.000	65.000
766.000	76.000
767.000	86.000
768.000	85.000
769.000	76.000
770.000	69.000
771.000	80.000
772.000	93.000
773.000	73.000
774.000	86.000
775.000	75.000
776.000	88.000
777.000	86.000
778.000	102.000
779.000	125.000
780.000	91.000
781.000	137.000
782.000	111.000
783.000	107.000
784.000	128.000
785.000	138.000
786.000	116.000
787.000	137.000
788.000	117.000
789.000	143.000
790.000	126.000
791.000	146.000
792.000	116.000
793.000	132.000
794.000	140.000
795.000	128.000
796.000	131.000
797.000	148.000
798.000	141.000
799.000	147.000
800.000	138.000
801.000	142.000
802.000	138.000
803.000	146.000
804.000	160.000
805.000	143.000
806.000	169.000
807.000	146.000
808.000	174.000
809.000	160.000
810.000	192.000
811.000	208.000
812.000	243.000
813.000	218.000
814.000	282.000
815.000	272.000
816.000	251.000
817.000	296.000
818.000	284.000
819.000	286.000
820.000	306.000
821.000	260.000
822.000	265.000
823.000	264.000
824.000	265.000
825.000	282.000
826.000	245.000
827.000	186.000
828.000	180.000
829.000	187.000
830.000	168.000
831.000	165.000
832.000	138.000
833.000	134.000
834.000	150.000
835.000	128.000
836.000	120.000
837.000	133.000
838.000	128.000
839.000	133.000
840.000	126.000
841.000	116.000
842.000	124.000
843.000	126.000
844.000	135.000
845.000	122.000
846.000	126.000
847.000	138.000
848.000	125.000
849.000	137.000
850.000	120.000
851.000	106.000
852.000	117.000
853.000	126.000
854.000	137.000
855.000	109.000
856.000	110.000
857.000	95.000
858.000	92.000
859.000	121.000
860.000	121.000
861.000	108.000
862.000	115.000
863.000	100.000
864.000	114.000
865.000	121.000
866.000	102.000
867.000	135.000
868.000	118.000
869.000	107.000
870.000	108.000
871.000	110.000
872.000	118.000
873.000	113.000
874.000	116.000
875.000	117.000
876.000	105.000
877.000	108.000
878.000	96.000
879.000	100.000
880.000	97.000
881.000	122.000
882.000	125.000
883.000	121.000
884.000	123.000
885.000	105.000
886.000	114.000
887.000	131.000
888.000	119.000
889.000	125.000
890.000	128.000
891.000	126.000
892.000	112.000
893.000	131.000
894.000	129.000
895.000	141.000
896.000	115.000
897.000	123.000
898.000	148.000
899.000	156.000
900.000	161.000
901.000	162.000
902.000	137.000
903.000	163.000
904.000	167.000
905.000	152.000
906.000	176.000
907.000	138.000
908.000	141.000
909.000	152.000
910.000	154.000
911.000	176.000
912.000	156.000
913.000	161.000
914.000	166.000
915.000	179.000
916.000	165.000
917.000	166.000
918.000	161.000
919.000	160.000
920.000	164.000
921.000	162.000
922.000	175.000
923.000	176.000
924.000	181.000
925.000	162.000
926.000	164.000
927.000	182.000
928.000	176.000
929.000	182.000
930.000	228.000
931.000	207.000
932.000	208.000
933.000	214.000
934.000	218.000
935.000	236.000
936.000	217.000
937.000	243.000
938.000	252.000
939.000	258.000
940.000	225.000
941.000	276.000
942.000	266.000
943.000	255.000
944.000	223.000
945.000	295.000
946.000	265.000
947.000	225.000
948.000	217.000
949.000	226.000
950.000	210.000
951.000	231.000
952.000	198.000
953.000	207.000
954.000	214.000
955.000	190.000
956.000	158.000
957.000	190.000
958.000	165.000
959.000	193.000
960.000	171.000
961.000	168.000
962.000	178.000
963.000	174.000
964.000	173.000
965.000	187.000
966.000	193.000
967.000	201.000
968.000	197.000
969.000	194.000
970.000	173.000
971.000	178.000
972.000	191.000
973.000	155.000
974.000	192.000
975.000	171.000
976.000	189.000
977.000	194.000
978.000	168.000
979.000	166.000
980.000	181.000
981.000	169.000
982.000	146.000
983.000	177.000
984.000	148.000
985.000	166.000
986.000	148.000
987.000	154.000
988.000	135.000
989.000	130.000
990.000	146.000
991.000	149.000
992.000	135.000
993.000	155.000
994.000	143.000
995.000	140.000
996.000	129.000
997.000	135.000
998.000	149.000
999.000	132.000
1000.000	150.000
1001.000	120.000
1002.000	127.000
1003.000	140.000
1004.000	142.000
1005.000	132.000
1006.000	135.000
1007.000	138.000
1008.000	138.000
1009.000	119.000
1010.000	136.000
1011.000	149.000
1012.000	125.000
1013.000	152.000
1014.000	136.000
1015.000	148.000
1016.000	133.000
1017.000	147.000
1018.000	149.000
1019.000	133.000
1020.000	131.000
1021.000	139.000
1022.000	138.000
1023.000	134.000
1024.000	137.000
1025.000	130.000
1026.000	156.000
1027.000	135.000
1028.000	130.000
1029.000	152.000
1030.000	141.000
1031.000	139.000
1032.000	162.000
1033.000	155.000
1034.000	123.000
1035.000	137.000
1036.000	151.000
1037.000	146.000
1038.000	140.000
1039.000	149.000
1040.000	129.000
1041.000	144.000
1042.000	154.000
1043.000	155.000
1044.000	174.000
1045.000	152.000
1046.000	132.000
1047.000	119.000
1048.000	153.000
1049.000	172.000
1050.000	147.000
1051.000	141.000
1052.000	167.000
1053.000	163.000
1054.000	157.000
1055.000	172.000
1056.000	145.000
1057.000	164.000
1058.000	157.000
1059.000	175.000
1060.000	154.000
1061.000	159.000
1062.000	156.000
1063.000	170.000
1064.000	138.000
1065.000	172.000
1066.000	159.000
1067.000	133.000
1068.000	156.000
1069.000	174.000
1070.000	174.000
1071.000	166.000
1072.000	141.000
1073.000	158.000
1074.000	143.000
1075.000	142.000
1076.000	142.000
1077.000	126.000
1078.000	152.000
1079.000	146.000
1080.000	137.000
1081.000	159.000
1082.000	147.000
1083.000	165.000
1084.000	142.000
1085.000	164.000
1086.000	150.000
1087.000	151.000
1088.000	168.000
1089.000	154.000
1090.000	145.000
1091.000	182.000
1092.000	172.000
1093.000	159.000
1094.000	175.000
1095.000	184.000
1096.000	170.000
1097.000	184.000
1098.000	158.000
1099.000	169.000
1100.000	171.000
1101.000	163.000
1102.000	177.000
1103.000	153.000
1104.000	183.000
1105.000	158.000
1106.000	175.000
1107.000	164.000
1108.000	191.000
1109.000	167.000
1110.000	172.000
1111.000	170.000
1112.000	159.000
1113.000	167.000
1114.000	167.000
1115.000	163.000
1116.000	162.000
1117.000	153.000
1118.000	154.000
1119.000	138.000
1120.000	159.000
1121.000	181.000
1122.000	160.000
1123.000	180.000
1124.000	151.000
1125.000	175.000
1126.000	156.000
1127.000	143.000
1128.000	180.000
1129.000	183.000
1130.000	167.000
1131.000	176.000
1132.000	163.000
1133.000	153.000
1134.000	136.000
1135.000	153.000
1136.000	167.000
1137.000	145.000
1138.000	165.000
1139.000	174.000
1140.000	166.000
1141.000	158.000
1142.000	168.000
1143.000	172.000
1144.000	164.000
1145.000	133.000
1146.000	163.000
1147.000	163.000
1148.000	170.000
1149.000	156.000
1150.000	160.000
1151.000	172.000
1152.000	171.000
1153.000	189.000
1154.000	155.000
1155.000	185.000
1156.000	196.000
1157.000	185.000
