Date:	17-Sep-20		Time:	5:22 PM		Version no:	0.00		Project name:	55		Sample name:	222		Section name:	section		Position	70.215018	mm	E0	0.000000	keV	E1	1.000000	keV/channel	sample surface	6.883791	cm	Tube anode:	Mo		Tube voltage:	30	kV	Tube current:	30	mA	gain	15		std. database			resultfile	result		matrix element	11		sample thickness	1.000000		air passage	0.560000	cm	comments	in position		peaking_time	0.300000	m-sec	trigger_threshold	40.000000	V	mca_bin_width	2.000000	no:	number_mca_channels	2048.000000	no:	gap_time	2048.000000	m-sec	trigger_peaking_time	2048.000000	m-sec	GAINDAC	400		HIGHGAIN	400		TAURC	400		RCTAU	400		RCTAUFRAC	400		livetime	13.378944	seconds	runtime	15.000315	seconds	input_count_rate	47418.464439	cps	output_count_rate	42293.045179	cps	triggers	699190	seconds	events_in_run	618156	seconds	channel	content		1.000	0.000
2.000	0.000
3.000	0.000
4.000	0.000
5.000	0.000
6.000	0.000
7.000	0.000
8.000	0.000
9.000	0.000
10.000	0.000
11.000	0.000
12.000	0.000
13.000	0.000
14.000	0.000
15.000	0.000
16.000	0.000
17.000	0.000
18.000	0.000
19.000	0.000
20.000	0.000
21.000	0.000
22.000	0.000
23.000	0.000
24.000	0.000
25.000	0.000
26.000	0.000
27.000	0.000
28.000	0.000
29.000	0.000
30.000	0.000
31.000	0.000
32.000	0.000
33.000	0.000
34.000	0.000
35.000	0.000
36.000	0.000
37.000	1.000
38.000	0.000
39.000	0.000
40.000	0.000
41.000	0.000
42.000	0.000
43.000	0.000
44.000	0.000
45.000	1.000
46.000	1.000
47.000	1.000
48.000	2.000
49.000	1.000
50.000	0.000
51.000	1.000
52.000	2.000
53.000	4.000
54.000	4.000
55.000	6.000
56.000	2.000
57.000	7.000
58.000	13.000
59.000	19.000
60.000	27.000
61.000	20.000
62.000	27.000
63.000	31.000
64.000	27.000
65.000	30.000
66.000	24.000
67.000	23.000
68.000	25.000
69.000	27.000
70.000	24.000
71.000	31.000
72.000	20.000
73.000	37.000
74.000	28.000
75.000	18.000
76.000	26.000
77.000	24.000
78.000	21.000
79.000	22.000
80.000	24.000
81.000	28.000
82.000	31.000
83.000	24.000
84.000	26.000
85.000	23.000
86.000	28.000
87.000	30.000
88.000	20.000
89.000	28.000
90.000	25.000
91.000	20.000
92.000	29.000
93.000	28.000
94.000	23.000
95.000	22.000
96.000	26.000
97.000	23.000
98.000	17.000
99.000	22.000
100.000	20.000
101.000	18.000
102.000	19.000
103.000	24.000
104.000	15.000
105.000	20.000
106.000	26.000
107.000	16.000
108.000	17.000
109.000	17.000
110.000	14.000
111.000	15.000
112.000	24.000
113.000	17.000
114.000	23.000
115.000	25.000
116.000	7.000
117.000	17.000
118.000	16.000
119.000	26.000
120.000	17.000
121.000	19.000
122.000	12.000
123.000	23.000
124.000	16.000
125.000	19.000
126.000	15.000
127.000	16.000
128.000	17.000
129.000	12.000
130.000	14.000
131.000	11.000
132.000	14.000
133.000	13.000
134.000	13.000
135.000	19.000
136.000	11.000
137.000	21.000
138.000	15.000
139.000	16.000
140.000	19.000
141.000	13.000
142.000	16.000
143.000	26.000
144.000	34.000
145.000	35.000
146.000	33.000
147.000	34.000
148.000	27.000
149.000	34.000
150.000	28.000
151.000	28.000
152.000	32.000
153.000	31.000
154.000	15.000
155.000	24.000
156.000	27.000
157.000	12.000
158.000	17.000
159.000	18.000
160.000	15.000
161.000	26.000
162.000	22.000
163.000	24.000
164.000	30.000
165.000	53.000
166.000	67.000
167.000	91.000
168.000	126.000
169.000	131.000
170.000	113.000
171.000	149.000
172.000	147.000
173.000	122.000
174.000	106.000
175.000	79.000
176.000	84.000
177.000	44.000
178.000	37.000
179.000	42.000
180.000	21.000
181.000	29.000
182.000	29.000
183.000	25.000
184.000	37.000
185.000	35.000
186.000	46.000
187.000	46.000
188.000	58.000
189.000	77.000
190.000	75.000
191.000	69.000
192.000	73.000
193.000	62.000
194.000	50.000
195.000	45.000
196.000	43.000
197.000	39.000
198.000	18.000
199.000	25.000
200.000	14.000
201.000	11.000
202.000	13.000
203.000	14.000
204.000	16.000
205.000	12.000
206.000	7.000
207.000	8.000
208.000	12.000
209.000	12.000
210.000	12.000
211.000	12.000
212.000	14.000
213.000	12.000
214.000	13.000
215.000	11.000
216.000	14.000
217.000	24.000
218.000	17.000
219.000	13.000
220.000	16.000
221.000	15.000
222.000	24.000
223.000	16.000
224.000	19.000
225.000	21.000
226.000	19.000
227.000	17.000
228.000	21.000
229.000	17.000
230.000	17.000
231.000	8.000
232.000	14.000
233.000	11.000
234.000	9.000
235.000	10.000
236.000	10.000
237.000	12.000
238.000	6.000
239.000	11.000
240.000	14.000
241.000	13.000
242.000	9.000
243.000	11.000
244.000	11.000
245.000	12.000
246.000	8.000
247.000	20.000
248.000	20.000
249.000	21.000
250.000	23.000
251.000	40.000
252.000	48.000
253.000	59.000
254.000	71.000
255.000	71.000
256.000	79.000
257.000	96.000
258.000	104.000
259.000	79.000
260.000	55.000
261.000	51.000
262.000	45.000
263.000	28.000
264.000	20.000
265.000	28.000
266.000	17.000
267.000	20.000
268.000	13.000
269.000	22.000
270.000	20.000
271.000	18.000
272.000	23.000
273.000	19.000
274.000	17.000
275.000	27.000
276.000	20.000
277.000	28.000
278.000	18.000
279.000	25.000
280.000	21.000
281.000	16.000
282.000	34.000
283.000	20.000
284.000	28.000
285.000	48.000
286.000	57.000
287.000	56.000
288.000	44.000
289.000	69.000
290.000	62.000
291.000	46.000
292.000	69.000
293.000	43.000
294.000	41.000
295.000	44.000
296.000	29.000
297.000	18.000
298.000	20.000
299.000	22.000
300.000	11.000
301.000	9.000
302.000	17.000
303.000	11.000
304.000	8.000
305.000	13.000
306.000	15.000
307.000	13.000
308.000	23.000
309.000	20.000
310.000	25.000
311.000	25.000
312.000	26.000
313.000	53.000
314.000	65.000
315.000	104.000
316.000	126.000
317.000	185.000
318.000	289.000
319.000	375.000
320.000	489.000
321.000	570.000
322.000	715.000
323.000	793.000
324.000	780.000
325.000	781.000
326.000	821.000
327.000	702.000
328.000	620.000
329.000	488.000
330.000	396.000
331.000	260.000
332.000	223.000
333.000	133.000
334.000	101.000
335.000	66.000
336.000	43.000
337.000	34.000
338.000	33.000
339.000	22.000
340.000	34.000
341.000	23.000
342.000	40.000
343.000	51.000
344.000	57.000
345.000	90.000
346.000	136.000
347.000	150.000
348.000	233.000
349.000	293.000
350.000	407.000
351.000	550.000
352.000	829.000
353.000	1145.000
354.000	1669.000
355.000	2080.000
356.000	2839.000
357.000	3408.000
358.000	3938.000
359.000	4502.000
360.000	5000.000
361.000	5202.000
362.000	5172.000
363.000	4823.000
364.000	4386.000
365.000	3808.000
366.000	3050.000
367.000	2420.000
368.000	1857.000
369.000	1352.000
370.000	892.000
371.000	602.000
372.000	386.000
373.000	224.000
374.000	132.000
375.000	106.000
376.000	65.000
377.000	52.000
378.000	50.000
379.000	52.000
380.000	52.000
381.000	84.000
382.000	111.000
383.000	143.000
384.000	186.000
385.000	261.000
386.000	278.000
387.000	410.000
388.000	504.000
389.000	589.000
390.000	700.000
391.000	699.000
392.000	738.000
393.000	771.000
394.000	789.000
395.000	631.000
396.000	636.000
397.000	534.000
398.000	415.000
399.000	358.000
400.000	259.000
401.000	192.000
402.000	114.000
403.000	83.000
404.000	65.000
405.000	38.000
406.000	23.000
407.000	18.000
408.000	14.000
409.000	21.000
410.000	7.000
411.000	8.000
412.000	7.000
413.000	7.000
414.000	11.000
415.000	8.000
416.000	12.000
417.000	11.000
418.000	9.000
419.000	10.000
420.000	16.000
421.000	10.000
422.000	15.000
423.000	18.000
424.000	11.000
425.000	17.000
426.000	23.000
427.000	31.000
428.000	52.000
429.000	69.000
430.000	98.000
431.000	141.000
432.000	192.000
433.000	261.000
434.000	394.000
435.000	468.000
436.000	554.000
437.000	661.000
438.000	745.000
439.000	880.000
440.000	897.000
441.000	947.000
442.000	965.000
443.000	833.000
444.000	805.000
445.000	673.000
446.000	576.000
447.000	467.000
448.000	372.000
449.000	312.000
450.000	263.000
451.000	183.000
452.000	148.000
453.000	109.000
454.000	111.000
455.000	85.000
456.000	98.000
457.000	65.000
458.000	74.000
459.000	61.000
460.000	47.000
461.000	36.000
462.000	60.000
463.000	33.000
464.000	41.000
465.000	39.000
466.000	42.000
467.000	36.000
468.000	38.000
469.000	37.000
470.000	44.000
471.000	66.000
472.000	58.000
473.000	73.000
474.000	82.000
475.000	108.000
476.000	113.000
477.000	139.000
478.000	139.000
479.000	155.000
480.000	198.000
481.000	168.000
482.000	189.000
483.000	183.000
484.000	171.000
485.000	165.000
486.000	143.000
487.000	120.000
488.000	107.000
489.000	88.000
490.000	96.000
491.000	50.000
492.000	55.000
493.000	45.000
494.000	31.000
495.000	38.000
496.000	27.000
497.000	35.000
498.000	39.000
499.000	35.000
500.000	23.000
501.000	23.000
502.000	23.000
503.000	36.000
504.000	25.000
505.000	32.000
506.000	26.000
507.000	31.000
508.000	42.000
509.000	35.000
510.000	37.000
511.000	40.000
512.000	33.000
513.000	35.000
514.000	45.000
515.000	43.000
516.000	39.000
517.000	48.000
518.000	42.000
519.000	41.000
520.000	46.000
521.000	53.000
522.000	48.000
523.000	65.000
524.000	69.000
525.000	59.000
526.000	73.000
527.000	79.000
528.000	85.000
529.000	68.000
530.000	72.000
531.000	72.000
532.000	65.000
533.000	55.000
534.000	53.000
535.000	55.000
536.000	40.000
537.000	47.000
538.000	37.000
539.000	39.000
540.000	29.000
541.000	42.000
542.000	34.000
543.000	27.000
544.000	31.000
545.000	31.000
546.000	39.000
547.000	39.000
548.000	34.000
549.000	38.000
550.000	26.000
551.000	35.000
552.000	30.000
553.000	41.000
554.000	29.000
555.000	29.000
556.000	37.000
557.000	40.000
558.000	31.000
559.000	44.000
560.000	22.000
561.000	42.000
562.000	40.000
563.000	65.000
564.000	73.000
565.000	96.000
566.000	101.000
567.000	126.000
568.000	176.000
569.000	187.000
570.000	236.000
571.000	285.000
572.000	293.000
573.000	311.000
574.000	343.000
575.000	386.000
576.000	367.000
577.000	381.000
578.000	373.000
579.000	336.000
580.000	287.000
581.000	261.000
582.000	269.000
583.000	215.000
584.000	178.000
585.000	144.000
586.000	125.000
587.000	109.000
588.000	94.000
589.000	69.000
590.000	78.000
591.000	58.000
592.000	58.000
593.000	52.000
594.000	58.000
595.000	56.000
596.000	58.000
597.000	57.000
598.000	60.000
599.000	72.000
600.000	52.000
601.000	72.000
602.000	77.000
603.000	83.000
604.000	92.000
605.000	109.000
606.000	159.000
607.000	169.000
608.000	255.000
609.000	346.000
610.000	550.000
611.000	767.000
612.000	1052.000
613.000	1509.000
614.000	2178.000
615.000	2926.000
616.000	3722.000
617.000	4803.000
618.000	6231.000
619.000	7466.000
620.000	8978.000
621.000	10337.000
622.000	11497.000
623.000	12595.000
624.000	13191.000
625.000	13536.000
626.000	13352.000
627.000	12853.000
628.000	12025.000
629.000	10865.000
630.000	9526.000
631.000	8314.000
632.000	6793.000
633.000	5516.000
634.000	4475.000
635.000	3423.000
636.000	2650.000
637.000	1822.000
638.000	1229.000
639.000	947.000
640.000	678.000
641.000	447.000
642.000	326.000
643.000	214.000
644.000	177.000
645.000	105.000
646.000	106.000
647.000	88.000
648.000	92.000
649.000	82.000
650.000	90.000
651.000	95.000
652.000	72.000
653.000	66.000
654.000	91.000
655.000	70.000
656.000	71.000
657.000	86.000
658.000	69.000
659.000	75.000
660.000	83.000
661.000	80.000
662.000	89.000
663.000	93.000
664.000	86.000
665.000	100.000
666.000	89.000
667.000	122.000
668.000	123.000
669.000	109.000
670.000	117.000
671.000	146.000
672.000	156.000
673.000	165.000
674.000	248.000
675.000	277.000
676.000	334.000
677.000	431.000
678.000	521.000
679.000	659.000
680.000	827.000
681.000	1000.000
682.000	1190.000
683.000	1409.000
684.000	1618.000
685.000	1745.000
686.000	1968.000
687.000	2110.000
688.000	2158.000
689.000	2212.000
690.000	2144.000
691.000	2172.000
692.000	1998.000
693.000	1774.000
694.000	1611.000
695.000	1372.000
696.000	1190.000
697.000	965.000
698.000	863.000
699.000	626.000
700.000	495.000
701.000	386.000
702.000	289.000
703.000	250.000
704.000	167.000
705.000	137.000
706.000	124.000
707.000	86.000
708.000	96.000
709.000	77.000
710.000	73.000
711.000	62.000
712.000	74.000
713.000	76.000
714.000	67.000
715.000	73.000
716.000	66.000
717.000	70.000
718.000	68.000
719.000	95.000
720.000	73.000
721.000	87.000
722.000	71.000
723.000	84.000
724.000	99.000
725.000	114.000
726.000	84.000
727.000	98.000
728.000	103.000
729.000	100.000
730.000	94.000
731.000	83.000
732.000	101.000
733.000	99.000
734.000	99.000
735.000	96.000
736.000	72.000
737.000	73.000
738.000	87.000
739.000	71.000
740.000	73.000
741.000	72.000
742.000	75.000
743.000	65.000
744.000	85.000
745.000	70.000
746.000	67.000
747.000	72.000
748.000	82.000
749.000	82.000
750.000	65.000
751.000	74.000
752.000	88.000
753.000	63.000
754.000	77.000
755.000	76.000
756.000	75.000
757.000	76.000
758.000	73.000
759.000	74.000
760.000	90.000
761.000	83.000
762.000	93.000
763.000	77.000
764.000	73.000
765.000	97.000
766.000	92.000
767.000	89.000
768.000	82.000
769.000	105.000
770.000	82.000
771.000	111.000
772.000	94.000
773.000	90.000
774.000	90.000
775.000	110.000
776.000	108.000
777.000	109.000
778.000	100.000
779.000	105.000
780.000	118.000
781.000	112.000
782.000	113.000
783.000	115.000
784.000	140.000
785.000	150.000
786.000	128.000
787.000	139.000
788.000	162.000
789.000	132.000
790.000	158.000
791.000	167.000
792.000	147.000
793.000	153.000
794.000	148.000
795.000	166.000
796.000	125.000
797.000	147.000
798.000	173.000
799.000	156.000
800.000	144.000
801.000	172.000
802.000	149.000
803.000	151.000
804.000	160.000
805.000	178.000
806.000	160.000
807.000	185.000
808.000	204.000
809.000	178.000
810.000	213.000
811.000	208.000
812.000	221.000
813.000	235.000
814.000	276.000
815.000	262.000
816.000	289.000
817.000	294.000
818.000	312.000
819.000	324.000
820.000	307.000
821.000	304.000
822.000	259.000
823.000	277.000
824.000	264.000
825.000	229.000
826.000	246.000
827.000	212.000
828.000	180.000
829.000	184.000
830.000	161.000
831.000	172.000
832.000	167.000
833.000	150.000
834.000	150.000
835.000	164.000
836.000	176.000
837.000	143.000
838.000	171.000
839.000	154.000
840.000	173.000
841.000	195.000
842.000	155.000
843.000	185.000
844.000	152.000
845.000	178.000
846.000	171.000
847.000	181.000
848.000	152.000
849.000	165.000
850.000	170.000
851.000	144.000
852.000	148.000
853.000	129.000
854.000	123.000
855.000	141.000
856.000	141.000
857.000	126.000
858.000	114.000
859.000	127.000
860.000	110.000
861.000	137.000
862.000	125.000
863.000	120.000
864.000	131.000
865.000	121.000
866.000	135.000
867.000	109.000
868.000	123.000
869.000	125.000
870.000	118.000
871.000	116.000
872.000	135.000
873.000	130.000
874.000	143.000
875.000	123.000
876.000	119.000
877.000	148.000
878.000	138.000
879.000	144.000
880.000	128.000
881.000	131.000
882.000	140.000
883.000	142.000
884.000	132.000
885.000	157.000
886.000	146.000
887.000	137.000
888.000	147.000
889.000	143.000
890.000	138.000
891.000	140.000
892.000	153.000
893.000	138.000
894.000	159.000
895.000	163.000
896.000	159.000
897.000	172.000
898.000	169.000
899.000	175.000
900.000	152.000
901.000	151.000
902.000	166.000
903.000	152.000
904.000	202.000
905.000	169.000
906.000	181.000
907.000	181.000
908.000	198.000
909.000	169.000
910.000	182.000
911.000	188.000
912.000	205.000
913.000	197.000
914.000	184.000
915.000	189.000
916.000	186.000
917.000	207.000
918.000	179.000
919.000	190.000
920.000	182.000
921.000	202.000
922.000	202.000
923.000	184.000
924.000	210.000
925.000	204.000
926.000	204.000
927.000	250.000
928.000	223.000
929.000	221.000
930.000	231.000
931.000	233.000
932.000	187.000
933.000	240.000
934.000	181.000
935.000	231.000
936.000	279.000
937.000	211.000
938.000	213.000
939.000	271.000
940.000	276.000
941.000	268.000
942.000	276.000
943.000	258.000
944.000	277.000
945.000	255.000
946.000	281.000
947.000	259.000
948.000	275.000
949.000	258.000
950.000	246.000
951.000	214.000
952.000	220.000
953.000	214.000
954.000	202.000
955.000	217.000
956.000	195.000
957.000	210.000
958.000	189.000
959.000	170.000
960.000	194.000
961.000	194.000
962.000	169.000
963.000	160.000
964.000	211.000
965.000	183.000
966.000	189.000
967.000	177.000
968.000	185.000
969.000	188.000
970.000	202.000
971.000	201.000
972.000	190.000
973.000	198.000
974.000	167.000
975.000	207.000
976.000	189.000
977.000	183.000
978.000	167.000
979.000	194.000
980.000	165.000
981.000	169.000
982.000	180.000
983.000	161.000
984.000	164.000
985.000	149.000
986.000	169.000
987.000	169.000
988.000	163.000
989.000	141.000
990.000	147.000
991.000	143.000
992.000	155.000
993.000	160.000
994.000	160.000
995.000	154.000
996.000	157.000
997.000	152.000
998.000	134.000
999.000	140.000
1000.000	163.000
1001.000	149.000
1002.000	155.000
1003.000	144.000
1004.000	152.000
1005.000	151.000
1006.000	142.000
1007.000	132.000
1008.000	170.000
1009.000	150.000
1010.000	152.000
1011.000	141.000
1012.000	113.000
1013.000	145.000
1014.000	142.000
1015.000	146.000
1016.000	153.000
1017.000	134.000
1018.000	165.000
1019.000	141.000
1020.000	147.000
1021.000	148.000
1022.000	163.000
1023.000	151.000
1024.000	147.000
1025.000	145.000
1026.000	140.000
1027.000	157.000
1028.000	140.000
1029.000	164.000
1030.000	166.000
1031.000	161.000
1032.000	149.000
1033.000	173.000
1034.000	151.000
1035.000	159.000
1036.000	164.000
1037.000	175.000
1038.000	150.000
1039.000	154.000
1040.000	146.000
1041.000	164.000
1042.000	164.000
1043.000	156.000
1044.000	153.000
1045.000	167.000
1046.000	146.000
1047.000	163.000
1048.000	137.000
1049.000	175.000
1050.000	167.000
1051.000	164.000
1052.000	143.000
1053.000	159.000
1054.000	198.000
1055.000	158.000
1056.000	161.000
1057.000	166.000
1058.000	178.000
1059.000	169.000
1060.000	163.000
1061.000	175.000
1062.000	175.000
1063.000	163.000
1064.000	173.000
1065.000	154.000
1066.000	168.000
1067.000	165.000
1068.000	185.000
1069.000	171.000
1070.000	182.000
1071.000	181.000
1072.000	155.000
1073.000	199.000
1074.000	187.000
1075.000	162.000
1076.000	168.000
1077.000	165.000
1078.000	165.000
1079.000	168.000
1080.000	166.000
1081.000	165.000
1082.000	166.000
1083.000	166.000
1084.000	155.000
1085.000	182.000
1086.000	163.000
1087.000	172.000
1088.000	186.000
1089.000	164.000
1090.000	167.000
1091.000	176.000
1092.000	196.000
1093.000	194.000
1094.000	186.000
1095.000	183.000
1096.000	175.000
1097.000	142.000
1098.000	182.000
1099.000	159.000
1100.000	173.000
1101.000	195.000
1102.000	179.000
1103.000	162.000
1104.000	163.000
1105.000	166.000
1106.000	182.000
1107.000	183.000
1108.000	159.000
1109.000	168.000
1110.000	169.000
1111.000	176.000
1112.000	188.000
1113.000	174.000
1114.000	167.000
1115.000	158.000
1116.000	175.000
1117.000	168.000
1118.000	148.000
1119.000	165.000
1120.000	180.000
1121.000	194.000
1122.000	170.000
1123.000	172.000
1124.000	177.000
1125.000	148.000
1126.000	153.000
1127.000	175.000
1128.000	154.000
1129.000	189.000
1130.000	173.000
1131.000	192.000
1132.000	151.000
1133.000	175.000
1134.000	174.000
1135.000	163.000
1136.000	174.000
1137.000	167.000
1138.000	187.000
1139.000	173.000
1140.000	172.000
1141.000	173.000
1142.000	159.000
1143.000	185.000
1144.000	178.000
1145.000	175.000
1146.000	181.000
1147.000	175.000
1148.000	170.000
1149.000	151.000
1150.000	180.000
1151.000	164.000
1152.000	176.000
1153.000	184.000
1154.000	184.000
