Date:	17-Sep-20		Time:	6:32 PM		Version no:	0.00		Project name:	55		Sample name:	222		Section name:	section		Position	335.215018	mm	E0	0.000000	keV	E1	1.000000	keV/channel	sample surface	6.745941	cm	Tube anode:	Mo		Tube voltage:	30	kV	Tube current:	30	mA	gain	15		std. database			resultfile	result		matrix element	11		sample thickness	1.000000		air passage	0.560000	cm	comments	in position		peaking_time	0.300000	m-sec	trigger_threshold	40.000000	V	mca_bin_width	2.000000	no:	number_mca_channels	2048.000000	no:	gap_time	2048.000000	m-sec	trigger_peaking_time	2048.000000	m-sec	GAINDAC	400		HIGHGAIN	400		TAURC	400		RCTAU	400		RCTAUFRAC	400		livetime	13.492422	seconds	runtime	15.000103	seconds	input_count_rate	48445.565534	cps	output_count_rate	43576.234110	cps	triggers	714857	seconds	events_in_run	640004	seconds	channel	content		1.000	0.000
2.000	0.000
3.000	0.000
4.000	0.000
5.000	0.000
6.000	0.000
7.000	0.000
8.000	0.000
9.000	0.000
10.000	0.000
11.000	0.000
12.000	0.000
13.000	0.000
14.000	0.000
15.000	0.000
16.000	0.000
17.000	0.000
18.000	0.000
19.000	0.000
20.000	0.000
21.000	0.000
22.000	0.000
23.000	0.000
24.000	0.000
25.000	0.000
26.000	0.000
27.000	0.000
28.000	0.000
29.000	0.000
30.000	0.000
31.000	1.000
32.000	0.000
33.000	0.000
34.000	1.000
35.000	1.000
36.000	2.000
37.000	0.000
38.000	0.000
39.000	0.000
40.000	2.000
41.000	1.000
42.000	0.000
43.000	0.000
44.000	0.000
45.000	0.000
46.000	0.000
47.000	1.000
48.000	0.000
49.000	0.000
50.000	0.000
51.000	1.000
52.000	2.000
53.000	0.000
54.000	3.000
55.000	3.000
56.000	3.000
57.000	14.000
58.000	19.000
59.000	16.000
60.000	15.000
61.000	24.000
62.000	20.000
63.000	21.000
64.000	27.000
65.000	19.000
66.000	22.000
67.000	25.000
68.000	22.000
69.000	27.000
70.000	19.000
71.000	21.000
72.000	17.000
73.000	25.000
74.000	18.000
75.000	22.000
76.000	24.000
77.000	22.000
78.000	23.000
79.000	23.000
80.000	17.000
81.000	14.000
82.000	11.000
83.000	17.000
84.000	17.000
85.000	18.000
86.000	24.000
87.000	24.000
88.000	17.000
89.000	18.000
90.000	16.000
91.000	21.000
92.000	22.000
93.000	21.000
94.000	23.000
95.000	18.000
96.000	17.000
97.000	13.000
98.000	19.000
99.000	15.000
100.000	9.000
101.000	19.000
102.000	22.000
103.000	17.000
104.000	18.000
105.000	19.000
106.000	30.000
107.000	14.000
108.000	12.000
109.000	17.000
110.000	18.000
111.000	16.000
112.000	15.000
113.000	10.000
114.000	19.000
115.000	15.000
116.000	15.000
117.000	14.000
118.000	11.000
119.000	22.000
120.000	13.000
121.000	17.000
122.000	7.000
123.000	22.000
124.000	12.000
125.000	19.000
126.000	17.000
127.000	12.000
128.000	15.000
129.000	15.000
130.000	16.000
131.000	19.000
132.000	13.000
133.000	21.000
134.000	8.000
135.000	18.000
136.000	15.000
137.000	15.000
138.000	14.000
139.000	17.000
140.000	17.000
141.000	18.000
142.000	25.000
143.000	30.000
144.000	24.000
145.000	23.000
146.000	26.000
147.000	32.000
148.000	30.000
149.000	27.000
150.000	28.000
151.000	25.000
152.000	31.000
153.000	19.000
154.000	19.000
155.000	22.000
156.000	22.000
157.000	20.000
158.000	15.000
159.000	16.000
160.000	15.000
161.000	16.000
162.000	21.000
163.000	27.000
164.000	33.000
165.000	60.000
166.000	78.000
167.000	91.000
168.000	120.000
169.000	144.000
170.000	137.000
171.000	127.000
172.000	125.000
173.000	118.000
174.000	104.000
175.000	65.000
176.000	60.000
177.000	52.000
178.000	36.000
179.000	29.000
180.000	26.000
181.000	29.000
182.000	26.000
183.000	38.000
184.000	32.000
185.000	47.000
186.000	51.000
187.000	52.000
188.000	75.000
189.000	104.000
190.000	87.000
191.000	94.000
192.000	91.000
193.000	89.000
194.000	66.000
195.000	69.000
196.000	50.000
197.000	37.000
198.000	27.000
199.000	27.000
200.000	15.000
201.000	15.000
202.000	12.000
203.000	13.000
204.000	10.000
205.000	14.000
206.000	9.000
207.000	20.000
208.000	14.000
209.000	12.000
210.000	7.000
211.000	10.000
212.000	7.000
213.000	17.000
214.000	19.000
215.000	13.000
216.000	8.000
217.000	15.000
218.000	16.000
219.000	17.000
220.000	23.000
221.000	14.000
222.000	21.000
223.000	28.000
224.000	29.000
225.000	24.000
226.000	23.000
227.000	17.000
228.000	25.000
229.000	11.000
230.000	12.000
231.000	17.000
232.000	10.000
233.000	8.000
234.000	4.000
235.000	8.000
236.000	5.000
237.000	8.000
238.000	11.000
239.000	4.000
240.000	8.000
241.000	10.000
242.000	10.000
243.000	10.000
244.000	13.000
245.000	10.000
246.000	4.000
247.000	11.000
248.000	15.000
249.000	16.000
250.000	18.000
251.000	24.000
252.000	41.000
253.000	51.000
254.000	68.000
255.000	62.000
256.000	60.000
257.000	77.000
258.000	64.000
259.000	68.000
260.000	47.000
261.000	61.000
262.000	53.000
263.000	30.000
264.000	33.000
265.000	17.000
266.000	24.000
267.000	13.000
268.000	25.000
269.000	20.000
270.000	18.000
271.000	29.000
272.000	21.000
273.000	30.000
274.000	17.000
275.000	23.000
276.000	14.000
277.000	14.000
278.000	16.000
279.000	19.000
280.000	9.000
281.000	15.000
282.000	20.000
283.000	26.000
284.000	26.000
285.000	29.000
286.000	37.000
287.000	55.000
288.000	48.000
289.000	63.000
290.000	56.000
291.000	61.000
292.000	55.000
293.000	47.000
294.000	46.000
295.000	31.000
296.000	34.000
297.000	19.000
298.000	19.000
299.000	9.000
300.000	20.000
301.000	7.000
302.000	11.000
303.000	11.000
304.000	13.000
305.000	15.000
306.000	13.000
307.000	15.000
308.000	20.000
309.000	26.000
310.000	24.000
311.000	31.000
312.000	26.000
313.000	58.000
314.000	69.000
315.000	75.000
316.000	129.000
317.000	160.000
318.000	222.000
319.000	340.000
320.000	434.000
321.000	483.000
322.000	612.000
323.000	648.000
324.000	667.000
325.000	706.000
326.000	662.000
327.000	554.000
328.000	519.000
329.000	393.000
330.000	331.000
331.000	241.000
332.000	193.000
333.000	131.000
334.000	85.000
335.000	51.000
336.000	35.000
337.000	26.000
338.000	31.000
339.000	30.000
340.000	30.000
341.000	34.000
342.000	34.000
343.000	56.000
344.000	68.000
345.000	100.000
346.000	110.000
347.000	197.000
348.000	263.000
349.000	313.000
350.000	531.000
351.000	722.000
352.000	1025.000
353.000	1590.000
354.000	2085.000
355.000	2854.000
356.000	3828.000
357.000	4685.000
358.000	5619.000
359.000	6482.000
360.000	7076.000
361.000	7188.000
362.000	7245.000
363.000	6769.000
364.000	6107.000
365.000	5418.000
366.000	4379.000
367.000	3503.000
368.000	2522.000
369.000	1815.000
370.000	1201.000
371.000	867.000
372.000	508.000
373.000	353.000
374.000	179.000
375.000	142.000
376.000	91.000
377.000	78.000
378.000	64.000
379.000	74.000
380.000	76.000
381.000	100.000
382.000	115.000
383.000	165.000
384.000	232.000
385.000	316.000
386.000	432.000
387.000	520.000
388.000	688.000
389.000	809.000
390.000	927.000
391.000	1034.000
392.000	1047.000
393.000	1018.000
394.000	1035.000
395.000	945.000
396.000	799.000
397.000	745.000
398.000	637.000
399.000	480.000
400.000	379.000
401.000	243.000
402.000	160.000
403.000	125.000
404.000	86.000
405.000	57.000
406.000	43.000
407.000	32.000
408.000	13.000
409.000	11.000
410.000	11.000
411.000	4.000
412.000	8.000
413.000	10.000
414.000	7.000
415.000	11.000
416.000	11.000
417.000	12.000
418.000	11.000
419.000	11.000
420.000	13.000
421.000	9.000
422.000	10.000
423.000	12.000
424.000	14.000
425.000	10.000
426.000	34.000
427.000	41.000
428.000	57.000
429.000	84.000
430.000	119.000
431.000	160.000
432.000	236.000
433.000	287.000
434.000	414.000
435.000	492.000
436.000	676.000
437.000	828.000
438.000	952.000
439.000	1051.000
440.000	1049.000
441.000	1147.000
442.000	1089.000
443.000	1079.000
444.000	1004.000
445.000	785.000
446.000	685.000
447.000	604.000
448.000	435.000
449.000	381.000
450.000	268.000
451.000	203.000
452.000	178.000
453.000	147.000
454.000	96.000
455.000	85.000
456.000	85.000
457.000	84.000
458.000	71.000
459.000	62.000
460.000	58.000
461.000	48.000
462.000	34.000
463.000	40.000
464.000	39.000
465.000	35.000
466.000	40.000
467.000	34.000
468.000	46.000
469.000	45.000
470.000	44.000
471.000	48.000
472.000	60.000
473.000	75.000
474.000	83.000
475.000	114.000
476.000	132.000
477.000	145.000
478.000	145.000
479.000	179.000
480.000	195.000
481.000	216.000
482.000	210.000
483.000	203.000
484.000	213.000
485.000	209.000
486.000	171.000
487.000	135.000
488.000	137.000
489.000	131.000
490.000	110.000
491.000	69.000
492.000	56.000
493.000	44.000
494.000	40.000
495.000	31.000
496.000	29.000
497.000	19.000
498.000	22.000
499.000	24.000
500.000	36.000
501.000	25.000
502.000	19.000
503.000	32.000
504.000	23.000
505.000	23.000
506.000	29.000
507.000	35.000
508.000	30.000
509.000	26.000
510.000	42.000
511.000	38.000
512.000	32.000
513.000	33.000
514.000	42.000
515.000	39.000
516.000	36.000
517.000	36.000
518.000	40.000
519.000	47.000
520.000	60.000
521.000	34.000
522.000	76.000
523.000	67.000
524.000	56.000
525.000	55.000
526.000	75.000
527.000	70.000
528.000	71.000
529.000	72.000
530.000	88.000
531.000	65.000
532.000	59.000
533.000	65.000
534.000	46.000
535.000	50.000
536.000	42.000
537.000	37.000
538.000	47.000
539.000	46.000
540.000	38.000
541.000	30.000
542.000	45.000
543.000	38.000
544.000	25.000
545.000	30.000
546.000	21.000
547.000	28.000
548.000	28.000
549.000	28.000
550.000	33.000
551.000	33.000
552.000	27.000
553.000	27.000
554.000	22.000
555.000	34.000
556.000	33.000
557.000	42.000
558.000	34.000
559.000	43.000
560.000	38.000
561.000	41.000
562.000	54.000
563.000	72.000
564.000	82.000
565.000	98.000
566.000	140.000
567.000	189.000
568.000	198.000
569.000	229.000
570.000	302.000
571.000	365.000
572.000	412.000
573.000	444.000
574.000	565.000
575.000	594.000
576.000	540.000
577.000	529.000
578.000	539.000
579.000	472.000
580.000	496.000
581.000	400.000
582.000	341.000
583.000	293.000
584.000	240.000
585.000	190.000
586.000	131.000
587.000	117.000
588.000	106.000
589.000	80.000
590.000	57.000
591.000	63.000
592.000	71.000
593.000	60.000
594.000	52.000
595.000	57.000
596.000	52.000
597.000	72.000
598.000	56.000
599.000	55.000
600.000	72.000
601.000	81.000
602.000	81.000
603.000	94.000
604.000	96.000
605.000	127.000
606.000	154.000
607.000	213.000
608.000	255.000
609.000	388.000
610.000	583.000
611.000	768.000
612.000	1126.000
613.000	1641.000
614.000	2383.000
615.000	3162.000
616.000	4117.000
617.000	5219.000
618.000	6700.000
619.000	8375.000
620.000	9660.000
621.000	11380.000
622.000	12562.000
623.000	13807.000
624.000	14576.000
625.000	14810.000
626.000	14804.000
627.000	14070.000
628.000	13390.000
629.000	12045.000
630.000	10918.000
631.000	9261.000
632.000	7566.000
633.000	6183.000
634.000	4765.000
635.000	3735.000
636.000	2777.000
637.000	1997.000
638.000	1437.000
639.000	1012.000
640.000	706.000
641.000	493.000
642.000	334.000
643.000	251.000
644.000	185.000
645.000	128.000
646.000	111.000
647.000	106.000
648.000	89.000
649.000	82.000
650.000	82.000
651.000	74.000
652.000	59.000
653.000	78.000
654.000	74.000
655.000	75.000
656.000	87.000
657.000	75.000
658.000	85.000
659.000	77.000
660.000	99.000
661.000	87.000
662.000	74.000
663.000	90.000
664.000	90.000
665.000	103.000
666.000	95.000
667.000	106.000
668.000	116.000
669.000	106.000
670.000	124.000
671.000	137.000
672.000	197.000
673.000	192.000
674.000	233.000
675.000	289.000
676.000	333.000
677.000	430.000
678.000	552.000
679.000	654.000
680.000	853.000
681.000	1033.000
682.000	1305.000
683.000	1466.000
684.000	1755.000
685.000	1887.000
686.000	2100.000
687.000	2302.000
688.000	2390.000
689.000	2458.000
690.000	2497.000
691.000	2279.000
692.000	2106.000
693.000	1908.000
694.000	1816.000
695.000	1472.000
696.000	1291.000
697.000	1072.000
698.000	866.000
699.000	660.000
700.000	509.000
701.000	400.000
702.000	317.000
703.000	229.000
704.000	177.000
705.000	139.000
706.000	94.000
707.000	104.000
708.000	80.000
709.000	66.000
710.000	64.000
711.000	60.000
712.000	49.000
713.000	68.000
714.000	57.000
715.000	44.000
716.000	64.000
717.000	60.000
718.000	62.000
719.000	75.000
720.000	83.000
721.000	84.000
722.000	84.000
723.000	85.000
724.000	65.000
725.000	105.000
726.000	87.000
727.000	75.000
728.000	102.000
729.000	117.000
730.000	90.000
731.000	95.000
732.000	114.000
733.000	83.000
734.000	87.000
735.000	86.000
736.000	82.000
737.000	61.000
738.000	54.000
739.000	83.000
740.000	61.000
741.000	73.000
742.000	61.000
743.000	78.000
744.000	78.000
745.000	60.000
746.000	78.000
747.000	81.000
748.000	58.000
749.000	59.000
750.000	76.000
751.000	66.000
752.000	70.000
753.000	78.000
754.000	70.000
755.000	56.000
756.000	66.000
757.000	61.000
758.000	71.000
759.000	72.000
760.000	65.000
761.000	74.000
762.000	66.000
763.000	70.000
764.000	82.000
765.000	91.000
766.000	64.000
767.000	72.000
768.000	70.000
769.000	69.000
770.000	72.000
771.000	84.000
772.000	75.000
773.000	88.000
774.000	86.000
775.000	90.000
776.000	78.000
777.000	89.000
778.000	96.000
779.000	112.000
780.000	113.000
781.000	126.000
782.000	101.000
783.000	114.000
784.000	99.000
785.000	105.000
786.000	129.000
787.000	108.000
788.000	124.000
789.000	138.000
790.000	133.000
791.000	129.000
792.000	134.000
793.000	131.000
794.000	134.000
795.000	129.000
796.000	138.000
797.000	122.000
798.000	130.000
799.000	123.000
800.000	99.000
801.000	131.000
802.000	138.000
803.000	146.000
804.000	141.000
805.000	165.000
806.000	138.000
807.000	177.000
808.000	152.000
809.000	148.000
810.000	173.000
811.000	185.000
812.000	179.000
813.000	205.000
814.000	240.000
815.000	245.000
816.000	244.000
817.000	241.000
818.000	233.000
819.000	276.000
820.000	266.000
821.000	277.000
822.000	266.000
823.000	225.000
824.000	225.000
825.000	207.000
826.000	209.000
827.000	184.000
828.000	181.000
829.000	177.000
830.000	142.000
831.000	152.000
832.000	144.000
833.000	128.000
834.000	142.000
835.000	130.000
836.000	147.000
837.000	142.000
838.000	158.000
839.000	145.000
840.000	153.000
841.000	130.000
842.000	155.000
843.000	155.000
844.000	146.000
845.000	142.000
846.000	158.000
847.000	140.000
848.000	157.000
849.000	127.000
850.000	151.000
851.000	129.000
852.000	101.000
853.000	125.000
854.000	105.000
855.000	107.000
856.000	91.000
857.000	114.000
858.000	113.000
859.000	105.000
860.000	110.000
861.000	119.000
862.000	114.000
863.000	111.000
864.000	114.000
865.000	108.000
866.000	114.000
867.000	125.000
868.000	99.000
869.000	109.000
870.000	107.000
871.000	122.000
872.000	114.000
873.000	116.000
874.000	127.000
875.000	102.000
876.000	106.000
877.000	101.000
878.000	109.000
879.000	109.000
880.000	116.000
881.000	117.000
882.000	113.000
883.000	103.000
884.000	102.000
885.000	124.000
886.000	124.000
887.000	109.000
888.000	117.000
889.000	109.000
890.000	122.000
891.000	117.000
892.000	127.000
893.000	137.000
894.000	148.000
895.000	124.000
896.000	124.000
897.000	136.000
898.000	138.000
899.000	133.000
900.000	133.000
901.000	161.000
902.000	116.000
903.000	159.000
904.000	170.000
905.000	164.000
906.000	142.000
907.000	175.000
908.000	187.000
909.000	151.000
910.000	158.000
911.000	161.000
912.000	172.000
913.000	185.000
914.000	165.000
915.000	141.000
916.000	172.000
917.000	172.000
918.000	155.000
919.000	163.000
920.000	171.000
921.000	172.000
922.000	185.000
923.000	188.000
924.000	182.000
925.000	175.000
926.000	193.000
927.000	175.000
928.000	195.000
929.000	189.000
930.000	202.000
931.000	173.000
932.000	202.000
933.000	195.000
934.000	199.000
935.000	216.000
936.000	231.000
937.000	190.000
938.000	221.000
939.000	214.000
940.000	254.000
941.000	260.000
942.000	253.000
943.000	233.000
944.000	235.000
945.000	250.000
946.000	235.000
947.000	259.000
948.000	247.000
949.000	237.000
950.000	190.000
951.000	219.000
952.000	196.000
953.000	215.000
954.000	176.000
955.000	179.000
956.000	199.000
957.000	205.000
958.000	179.000
959.000	183.000
960.000	176.000
961.000	150.000
962.000	151.000
963.000	173.000
964.000	167.000
965.000	178.000
966.000	181.000
967.000	169.000
968.000	179.000
969.000	164.000
970.000	188.000
971.000	170.000
972.000	165.000
973.000	167.000
974.000	178.000
975.000	154.000
976.000	160.000
977.000	169.000
978.000	159.000
979.000	153.000
980.000	164.000
981.000	147.000
982.000	134.000
983.000	155.000
984.000	167.000
985.000	138.000
986.000	134.000
987.000	128.000
988.000	156.000
989.000	153.000
990.000	128.000
991.000	124.000
992.000	139.000
993.000	138.000
994.000	143.000
995.000	134.000
996.000	145.000
997.000	138.000
998.000	128.000
999.000	131.000
1000.000	124.000
1001.000	118.000
1002.000	126.000
1003.000	124.000
1004.000	139.000
1005.000	121.000
1006.000	131.000
1007.000	129.000
1008.000	116.000
1009.000	131.000
1010.000	113.000
1011.000	117.000
1012.000	136.000
1013.000	108.000
1014.000	133.000
1015.000	135.000
1016.000	135.000
1017.000	126.000
1018.000	128.000
1019.000	123.000
1020.000	131.000
1021.000	124.000
1022.000	128.000
1023.000	139.000
1024.000	127.000
1025.000	119.000
1026.000	154.000
1027.000	162.000
1028.000	133.000
1029.000	146.000
1030.000	132.000
1031.000	124.000
1032.000	143.000
1033.000	135.000
1034.000	132.000
1035.000	149.000
1036.000	123.000
1037.000	139.000
1038.000	120.000
1039.000	127.000
1040.000	131.000
1041.000	122.000
1042.000	122.000
1043.000	151.000
1044.000	146.000
1045.000	154.000
1046.000	107.000
1047.000	155.000
1048.000	130.000
1049.000	147.000
1050.000	117.000
1051.000	134.000
1052.000	135.000
1053.000	156.000
1054.000	150.000
1055.000	141.000
1056.000	172.000
1057.000	149.000
1058.000	151.000
1059.000	131.000
1060.000	142.000
1061.000	136.000
1062.000	155.000
1063.000	131.000
1064.000	135.000
1065.000	141.000
1066.000	144.000
1067.000	136.000
1068.000	153.000
1069.000	154.000
1070.000	156.000
1071.000	146.000
1072.000	149.000
1073.000	164.000
1074.000	140.000
1075.000	161.000
1076.000	160.000
1077.000	171.000
1078.000	140.000
1079.000	141.000
1080.000	149.000
1081.000	160.000
1082.000	151.000
1083.000	157.000
1084.000	144.000
1085.000	171.000
1086.000	135.000
1087.000	154.000
1088.000	152.000
1089.000	147.000
1090.000	146.000
1091.000	142.000
1092.000	150.000
1093.000	154.000
1094.000	149.000
1095.000	157.000
1096.000	163.000
1097.000	149.000
1098.000	156.000
1099.000	154.000
1100.000	167.000
1101.000	178.000
1102.000	166.000
1103.000	165.000
1104.000	165.000
1105.000	177.000
1106.000	154.000
1107.000	154.000
1108.000	185.000
1109.000	161.000
1110.000	166.000
1111.000	144.000
1112.000	177.000
1113.000	159.000
1114.000	148.000
1115.000	143.000
1116.000	140.000
1117.000	146.000
1118.000	134.000
1119.000	147.000
1120.000	126.000
1121.000	146.000
1122.000	144.000
1123.000	155.000
1124.000	170.000
1125.000	153.000
1126.000	156.000
1127.000	147.000
1128.000	152.000
1129.000	151.000
1130.000	146.000
1131.000	147.000
1132.000	146.000
1133.000	131.000
1134.000	159.000
1135.000	163.000
1136.000	142.000
1137.000	134.000
1138.000	152.000
1139.000	162.000
1140.000	151.000
1141.000	136.000
1142.000	153.000
1143.000	163.000
1144.000	137.000
1145.000	161.000
1146.000	163.000
1147.000	148.000
1148.000	154.000
1149.000	157.000
1150.000	153.000
1151.000	139.000
1152.000	143.000
1153.000	149.000
1154.000	170.000
