Date:	17-Sep-20		Time:	11:32 PM		Version no:	0.00		Project name:	55		Sample name:	222		Section name:	section		Position	1462.215018	mm	E0	0.000000	keV	E1	1.000000	keV/channel	sample surface	6.930035	cm	Tube anode:	Mo		Tube voltage:	30	kV	Tube current:	30	mA	gain	15		std. database			resultfile	result		matrix element	11		sample thickness	1.000000		air passage	0.560000	cm	comments	in position		peaking_time	0.300000	m-sec	trigger_threshold	40.000000	V	mca_bin_width	2.000000	no:	number_mca_channels	2048.000000	no:	gap_time	2048.000000	m-sec	trigger_peaking_time	2048.000000	m-sec	GAINDAC	400		HIGHGAIN	400		TAURC	400		RCTAU	400		RCTAUFRAC	400		livetime	13.497459	seconds	runtime	15.000151	seconds	input_count_rate	46959.729017	cps	output_count_rate	42255.376038	cps	triggers	693516	seconds	events_in_run	619316	seconds	channel	content		1.000	0.000
2.000	0.000
3.000	0.000
4.000	0.000
5.000	0.000
6.000	0.000
7.000	0.000
8.000	0.000
9.000	0.000
10.000	0.000
11.000	0.000
12.000	0.000
13.000	0.000
14.000	0.000
15.000	0.000
16.000	0.000
17.000	0.000
18.000	0.000
19.000	0.000
20.000	0.000
21.000	0.000
22.000	0.000
23.000	0.000
24.000	0.000
25.000	0.000
26.000	0.000
27.000	0.000
28.000	0.000
29.000	0.000
30.000	0.000
31.000	1.000
32.000	1.000
33.000	0.000
34.000	0.000
35.000	1.000
36.000	0.000
37.000	1.000
38.000	0.000
39.000	0.000
40.000	0.000
41.000	0.000
42.000	0.000
43.000	0.000
44.000	0.000
45.000	0.000
46.000	0.000
47.000	1.000
48.000	0.000
49.000	0.000
50.000	2.000
51.000	1.000
52.000	3.000
53.000	5.000
54.000	3.000
55.000	5.000
56.000	7.000
57.000	6.000
58.000	18.000
59.000	25.000
60.000	15.000
61.000	26.000
62.000	24.000
63.000	33.000
64.000	22.000
65.000	21.000
66.000	24.000
67.000	22.000
68.000	33.000
69.000	28.000
70.000	22.000
71.000	21.000
72.000	16.000
73.000	28.000
74.000	20.000
75.000	20.000
76.000	16.000
77.000	30.000
78.000	29.000
79.000	24.000
80.000	27.000
81.000	26.000
82.000	24.000
83.000	29.000
84.000	27.000
85.000	27.000
86.000	21.000
87.000	20.000
88.000	32.000
89.000	25.000
90.000	19.000
91.000	13.000
92.000	35.000
93.000	23.000
94.000	22.000
95.000	19.000
96.000	20.000
97.000	11.000
98.000	20.000
99.000	18.000
100.000	22.000
101.000	23.000
102.000	19.000
103.000	11.000
104.000	25.000
105.000	16.000
106.000	18.000
107.000	18.000
108.000	24.000
109.000	19.000
110.000	11.000
111.000	26.000
112.000	14.000
113.000	20.000
114.000	13.000
115.000	17.000
116.000	18.000
117.000	17.000
118.000	14.000
119.000	20.000
120.000	14.000
121.000	20.000
122.000	22.000
123.000	16.000
124.000	16.000
125.000	17.000
126.000	14.000
127.000	17.000
128.000	13.000
129.000	11.000
130.000	21.000
131.000	12.000
132.000	12.000
133.000	14.000
134.000	19.000
135.000	16.000
136.000	17.000
137.000	21.000
138.000	15.000
139.000	17.000
140.000	11.000
141.000	22.000
142.000	17.000
143.000	26.000
144.000	29.000
145.000	20.000
146.000	25.000
147.000	21.000
148.000	17.000
149.000	20.000
150.000	25.000
151.000	21.000
152.000	24.000
153.000	29.000
154.000	18.000
155.000	20.000
156.000	31.000
157.000	19.000
158.000	17.000
159.000	13.000
160.000	9.000
161.000	12.000
162.000	16.000
163.000	19.000
164.000	31.000
165.000	27.000
166.000	22.000
167.000	49.000
168.000	57.000
169.000	69.000
170.000	67.000
171.000	66.000
172.000	70.000
173.000	63.000
174.000	48.000
175.000	34.000
176.000	41.000
177.000	25.000
178.000	30.000
179.000	33.000
180.000	28.000
181.000	35.000
182.000	49.000
183.000	56.000
184.000	63.000
185.000	75.000
186.000	127.000
187.000	110.000
188.000	170.000
189.000	194.000
190.000	196.000
191.000	233.000
192.000	240.000
193.000	209.000
194.000	147.000
195.000	127.000
196.000	98.000
197.000	74.000
198.000	51.000
199.000	32.000
200.000	26.000
201.000	17.000
202.000	17.000
203.000	14.000
204.000	18.000
205.000	18.000
206.000	14.000
207.000	13.000
208.000	16.000
209.000	13.000
210.000	15.000
211.000	22.000
212.000	18.000
213.000	18.000
214.000	12.000
215.000	19.000
216.000	27.000
217.000	31.000
218.000	29.000
219.000	29.000
220.000	34.000
221.000	34.000
222.000	57.000
223.000	51.000
224.000	55.000
225.000	45.000
226.000	45.000
227.000	47.000
228.000	21.000
229.000	28.000
230.000	34.000
231.000	11.000
232.000	14.000
233.000	12.000
234.000	14.000
235.000	12.000
236.000	10.000
237.000	17.000
238.000	11.000
239.000	14.000
240.000	14.000
241.000	17.000
242.000	13.000
243.000	9.000
244.000	15.000
245.000	26.000
246.000	17.000
247.000	16.000
248.000	31.000
249.000	37.000
250.000	52.000
251.000	74.000
252.000	96.000
253.000	97.000
254.000	97.000
255.000	135.000
256.000	146.000
257.000	148.000
258.000	163.000
259.000	119.000
260.000	118.000
261.000	97.000
262.000	96.000
263.000	67.000
264.000	41.000
265.000	46.000
266.000	29.000
267.000	18.000
268.000	20.000
269.000	14.000
270.000	18.000
271.000	19.000
272.000	29.000
273.000	24.000
274.000	30.000
275.000	22.000
276.000	38.000
277.000	28.000
278.000	32.000
279.000	30.000
280.000	30.000
281.000	39.000
282.000	26.000
283.000	27.000
284.000	37.000
285.000	42.000
286.000	53.000
287.000	42.000
288.000	81.000
289.000	78.000
290.000	87.000
291.000	84.000
292.000	66.000
293.000	41.000
294.000	55.000
295.000	64.000
296.000	36.000
297.000	32.000
298.000	27.000
299.000	27.000
300.000	24.000
301.000	19.000
302.000	19.000
303.000	28.000
304.000	24.000
305.000	29.000
306.000	20.000
307.000	32.000
308.000	32.000
309.000	31.000
310.000	42.000
311.000	44.000
312.000	34.000
313.000	48.000
314.000	55.000
315.000	71.000
316.000	86.000
317.000	116.000
318.000	129.000
319.000	206.000
320.000	234.000
321.000	273.000
322.000	320.000
323.000	340.000
324.000	378.000
325.000	365.000
326.000	361.000
327.000	287.000
328.000	270.000
329.000	224.000
330.000	164.000
331.000	138.000
332.000	101.000
333.000	73.000
334.000	54.000
335.000	41.000
336.000	54.000
337.000	36.000
338.000	40.000
339.000	38.000
340.000	46.000
341.000	66.000
342.000	53.000
343.000	96.000
344.000	109.000
345.000	131.000
346.000	181.000
347.000	292.000
348.000	430.000
349.000	680.000
350.000	1031.000
351.000	1671.000
352.000	2501.000
353.000	3704.000
354.000	5315.000
355.000	7156.000
356.000	9210.000
357.000	11684.000
358.000	14034.000
359.000	16086.000
360.000	17385.000
361.000	18420.000
362.000	18018.000
363.000	17211.000
364.000	15815.000
365.000	13229.000
366.000	10990.000
367.000	8619.000
368.000	6610.000
369.000	4749.000
370.000	3178.000
371.000	2155.000
372.000	1401.000
373.000	794.000
374.000	523.000
375.000	304.000
376.000	216.000
377.000	173.000
378.000	156.000
379.000	178.000
380.000	214.000
381.000	253.000
382.000	333.000
383.000	432.000
384.000	645.000
385.000	820.000
386.000	1113.000
387.000	1379.000
388.000	1696.000
389.000	2032.000
390.000	2370.000
391.000	2581.000
392.000	2737.000
393.000	2723.000
394.000	2732.000
395.000	2475.000
396.000	2137.000
397.000	1779.000
398.000	1498.000
399.000	1210.000
400.000	880.000
401.000	651.000
402.000	447.000
403.000	305.000
404.000	193.000
405.000	132.000
406.000	59.000
407.000	49.000
408.000	29.000
409.000	20.000
410.000	20.000
411.000	13.000
412.000	7.000
413.000	9.000
414.000	7.000
415.000	11.000
416.000	5.000
417.000	5.000
418.000	5.000
419.000	11.000
420.000	7.000
421.000	4.000
422.000	6.000
423.000	9.000
424.000	9.000
425.000	10.000
426.000	11.000
427.000	16.000
428.000	17.000
429.000	23.000
430.000	32.000
431.000	41.000
432.000	50.000
433.000	65.000
434.000	101.000
435.000	145.000
436.000	141.000
437.000	204.000
438.000	236.000
439.000	222.000
440.000	259.000
441.000	258.000
442.000	255.000
443.000	245.000
444.000	193.000
445.000	152.000
446.000	166.000
447.000	153.000
448.000	108.000
449.000	86.000
450.000	66.000
451.000	53.000
452.000	46.000
453.000	59.000
454.000	41.000
455.000	47.000
456.000	42.000
457.000	25.000
458.000	33.000
459.000	30.000
460.000	23.000
461.000	24.000
462.000	18.000
463.000	18.000
464.000	22.000
465.000	17.000
466.000	18.000
467.000	22.000
468.000	16.000
469.000	16.000
470.000	25.000
471.000	18.000
472.000	29.000
473.000	30.000
474.000	24.000
475.000	36.000
476.000	36.000
477.000	44.000
478.000	48.000
479.000	47.000
480.000	68.000
481.000	52.000
482.000	43.000
483.000	61.000
484.000	68.000
485.000	53.000
486.000	43.000
487.000	44.000
488.000	34.000
489.000	39.000
490.000	23.000
491.000	34.000
492.000	18.000
493.000	17.000
494.000	18.000
495.000	18.000
496.000	10.000
497.000	19.000
498.000	12.000
499.000	10.000
500.000	17.000
501.000	8.000
502.000	13.000
503.000	12.000
504.000	18.000
505.000	15.000
506.000	24.000
507.000	17.000
508.000	12.000
509.000	21.000
510.000	19.000
511.000	19.000
512.000	19.000
513.000	24.000
514.000	18.000
515.000	21.000
516.000	14.000
517.000	28.000
518.000	27.000
519.000	32.000
520.000	33.000
521.000	37.000
522.000	37.000
523.000	42.000
524.000	44.000
525.000	42.000
526.000	43.000
527.000	45.000
528.000	54.000
529.000	60.000
530.000	58.000
531.000	50.000
532.000	52.000
533.000	41.000
534.000	34.000
535.000	24.000
536.000	40.000
537.000	21.000
538.000	31.000
539.000	28.000
540.000	24.000
541.000	17.000
542.000	23.000
543.000	17.000
544.000	30.000
545.000	32.000
546.000	22.000
547.000	27.000
548.000	19.000
549.000	18.000
550.000	16.000
551.000	24.000
552.000	21.000
553.000	20.000
554.000	32.000
555.000	24.000
556.000	29.000
557.000	26.000
558.000	19.000
559.000	23.000
560.000	37.000
561.000	29.000
562.000	36.000
563.000	26.000
564.000	41.000
565.000	31.000
566.000	41.000
567.000	54.000
568.000	52.000
569.000	55.000
570.000	56.000
571.000	85.000
572.000	94.000
573.000	97.000
574.000	87.000
575.000	104.000
576.000	99.000
577.000	92.000
578.000	74.000
579.000	89.000
580.000	99.000
581.000	79.000
582.000	75.000
583.000	65.000
584.000	57.000
585.000	44.000
586.000	56.000
587.000	45.000
588.000	42.000
589.000	41.000
590.000	32.000
591.000	28.000
592.000	31.000
593.000	31.000
594.000	28.000
595.000	34.000
596.000	26.000
597.000	51.000
598.000	24.000
599.000	45.000
600.000	41.000
601.000	33.000
602.000	46.000
603.000	42.000
604.000	57.000
605.000	53.000
606.000	75.000
607.000	93.000
608.000	127.000
609.000	169.000
610.000	231.000
611.000	323.000
612.000	463.000
613.000	688.000
614.000	865.000
615.000	1283.000
616.000	1655.000
617.000	2089.000
618.000	2547.000
619.000	3153.000
620.000	3778.000
621.000	4549.000
622.000	5010.000
623.000	5448.000
624.000	5666.000
625.000	5825.000
626.000	5902.000
627.000	5637.000
628.000	5196.000
629.000	4662.000
630.000	4158.000
631.000	3517.000
632.000	3114.000
633.000	2498.000
634.000	1904.000
635.000	1457.000
636.000	1119.000
637.000	795.000
638.000	577.000
639.000	435.000
640.000	312.000
641.000	217.000
642.000	171.000
643.000	117.000
644.000	84.000
645.000	75.000
646.000	71.000
647.000	56.000
648.000	55.000
649.000	44.000
650.000	58.000
651.000	60.000
652.000	46.000
653.000	65.000
654.000	49.000
655.000	57.000
656.000	63.000
657.000	48.000
658.000	48.000
659.000	66.000
660.000	75.000
661.000	57.000
662.000	69.000
663.000	66.000
664.000	69.000
665.000	77.000
666.000	61.000
667.000	81.000
668.000	96.000
669.000	69.000
670.000	89.000
671.000	88.000
672.000	95.000
673.000	108.000
674.000	125.000
675.000	149.000
676.000	173.000
677.000	193.000
678.000	244.000
679.000	317.000
680.000	356.000
681.000	433.000
682.000	504.000
683.000	614.000
684.000	735.000
685.000	788.000
686.000	903.000
687.000	937.000
688.000	964.000
689.000	955.000
690.000	936.000
691.000	905.000
692.000	906.000
693.000	769.000
694.000	717.000
695.000	625.000
696.000	523.000
697.000	439.000
698.000	388.000
699.000	304.000
700.000	275.000
701.000	195.000
702.000	149.000
703.000	132.000
704.000	82.000
705.000	97.000
706.000	73.000
707.000	50.000
708.000	85.000
709.000	65.000
710.000	57.000
711.000	56.000
712.000	52.000
713.000	65.000
714.000	60.000
715.000	65.000
716.000	68.000
717.000	64.000
718.000	66.000
719.000	62.000
720.000	78.000
721.000	90.000
722.000	81.000
723.000	90.000
724.000	79.000
725.000	103.000
726.000	86.000
727.000	86.000
728.000	89.000
729.000	84.000
730.000	86.000
731.000	99.000
732.000	85.000
733.000	77.000
734.000	90.000
735.000	90.000
736.000	63.000
737.000	87.000
738.000	73.000
739.000	84.000
740.000	67.000
741.000	73.000
742.000	76.000
743.000	74.000
744.000	68.000
745.000	67.000
746.000	61.000
747.000	66.000
748.000	66.000
749.000	65.000
750.000	63.000
751.000	54.000
752.000	76.000
753.000	72.000
754.000	53.000
755.000	50.000
756.000	64.000
757.000	78.000
758.000	69.000
759.000	58.000
760.000	89.000
761.000	76.000
762.000	81.000
763.000	60.000
764.000	70.000
765.000	65.000
766.000	65.000
767.000	73.000
768.000	81.000
769.000	82.000
770.000	79.000
771.000	66.000
772.000	83.000
773.000	89.000
774.000	82.000
775.000	77.000
776.000	97.000
777.000	90.000
778.000	100.000
779.000	122.000
780.000	118.000
781.000	99.000
782.000	113.000
783.000	130.000
784.000	130.000
785.000	119.000
786.000	101.000
787.000	124.000
788.000	145.000
789.000	127.000
790.000	135.000
791.000	121.000
792.000	161.000
793.000	112.000
794.000	132.000
795.000	138.000
796.000	134.000
797.000	161.000
798.000	134.000
799.000	131.000
800.000	135.000
801.000	171.000
802.000	145.000
803.000	146.000
804.000	133.000
805.000	143.000
806.000	186.000
807.000	147.000
808.000	168.000
809.000	179.000
810.000	169.000
811.000	209.000
812.000	224.000
813.000	230.000
814.000	255.000
815.000	285.000
816.000	282.000
817.000	300.000
818.000	268.000
819.000	271.000
820.000	290.000
821.000	294.000
822.000	273.000
823.000	295.000
824.000	280.000
825.000	247.000
826.000	230.000
827.000	209.000
828.000	213.000
829.000	156.000
830.000	167.000
831.000	153.000
832.000	155.000
833.000	137.000
834.000	115.000
835.000	116.000
836.000	139.000
837.000	138.000
838.000	140.000
839.000	119.000
840.000	128.000
841.000	115.000
842.000	135.000
843.000	129.000
844.000	143.000
845.000	130.000
846.000	127.000
847.000	132.000
848.000	123.000
849.000	129.000
850.000	113.000
851.000	130.000
852.000	127.000
853.000	116.000
854.000	117.000
855.000	133.000
856.000	118.000
857.000	110.000
858.000	112.000
859.000	104.000
860.000	112.000
861.000	113.000
862.000	114.000
863.000	118.000
864.000	108.000
865.000	114.000
866.000	113.000
867.000	100.000
868.000	124.000
869.000	105.000
870.000	107.000
871.000	130.000
872.000	111.000
873.000	135.000
874.000	118.000
875.000	127.000
876.000	124.000
877.000	102.000
878.000	111.000
879.000	120.000
880.000	107.000
881.000	126.000
882.000	108.000
883.000	109.000
884.000	114.000
885.000	128.000
886.000	108.000
887.000	110.000
888.000	107.000
889.000	123.000
890.000	132.000
891.000	98.000
892.000	144.000
893.000	115.000
894.000	121.000
895.000	122.000
896.000	151.000
897.000	149.000
898.000	146.000
899.000	160.000
900.000	112.000
901.000	151.000
902.000	141.000
903.000	140.000
904.000	147.000
905.000	144.000
906.000	152.000
907.000	135.000
908.000	143.000
909.000	173.000
910.000	167.000
911.000	156.000
912.000	147.000
913.000	180.000
914.000	156.000
915.000	157.000
916.000	161.000
917.000	158.000
918.000	169.000
919.000	145.000
920.000	192.000
921.000	177.000
922.000	183.000
923.000	172.000
924.000	171.000
925.000	172.000
926.000	190.000
927.000	160.000
928.000	183.000
929.000	191.000
930.000	204.000
931.000	170.000
932.000	171.000
933.000	202.000
934.000	216.000
935.000	226.000
936.000	232.000
937.000	234.000
938.000	243.000
939.000	247.000
940.000	254.000
941.000	222.000
942.000	248.000
943.000	253.000
944.000	237.000
945.000	265.000
946.000	253.000
947.000	268.000
948.000	264.000
949.000	220.000
950.000	247.000
951.000	207.000
952.000	208.000
953.000	199.000
954.000	192.000
955.000	193.000
956.000	181.000
957.000	152.000
958.000	194.000
959.000	171.000
960.000	191.000
961.000	186.000
962.000	172.000
963.000	176.000
964.000	167.000
965.000	165.000
966.000	151.000
967.000	187.000
968.000	195.000
969.000	178.000
970.000	175.000
971.000	181.000
972.000	178.000
973.000	179.000
974.000	198.000
975.000	189.000
976.000	164.000
977.000	184.000
978.000	167.000
979.000	161.000
980.000	153.000
981.000	163.000
982.000	138.000
983.000	166.000
984.000	154.000
985.000	168.000
986.000	144.000
987.000	152.000
988.000	154.000
989.000	174.000
990.000	138.000
991.000	136.000
992.000	143.000
993.000	153.000
994.000	142.000
995.000	157.000
996.000	149.000
997.000	140.000
998.000	129.000
999.000	135.000
1000.000	144.000
1001.000	132.000
1002.000	136.000
1003.000	132.000
1004.000	149.000
1005.000	146.000
1006.000	144.000
1007.000	131.000
1008.000	141.000
1009.000	164.000
1010.000	124.000
1011.000	131.000
1012.000	104.000
1013.000	124.000
1014.000	137.000
1015.000	121.000
1016.000	147.000
1017.000	155.000
1018.000	149.000
1019.000	148.000
1020.000	141.000
1021.000	141.000
1022.000	146.000
1023.000	147.000
1024.000	141.000
1025.000	144.000
1026.000	157.000
1027.000	122.000
1028.000	121.000
1029.000	144.000
1030.000	115.000
1031.000	134.000
1032.000	133.000
1033.000	160.000
1034.000	147.000
1035.000	143.000
1036.000	154.000
1037.000	145.000
1038.000	157.000
1039.000	152.000
1040.000	125.000
1041.000	157.000
1042.000	146.000
1043.000	135.000
1044.000	159.000
1045.000	153.000
1046.000	144.000
1047.000	176.000
1048.000	154.000
1049.000	145.000
1050.000	149.000
1051.000	139.000
1052.000	142.000
1053.000	150.000
1054.000	154.000
1055.000	150.000
1056.000	142.000
1057.000	155.000
1058.000	154.000
1059.000	161.000
1060.000	174.000
1061.000	155.000
1062.000	155.000
1063.000	142.000
1064.000	150.000
1065.000	147.000
1066.000	172.000
1067.000	162.000
1068.000	154.000
1069.000	155.000
1070.000	158.000
1071.000	148.000
1072.000	154.000
1073.000	146.000
1074.000	141.000
1075.000	146.000
1076.000	128.000
1077.000	146.000
1078.000	159.000
1079.000	161.000
1080.000	153.000
1081.000	144.000
1082.000	141.000
1083.000	164.000
1084.000	157.000
1085.000	144.000
1086.000	173.000
1087.000	153.000
1088.000	148.000
1089.000	151.000
1090.000	187.000
1091.000	161.000
1092.000	152.000
1093.000	154.000
1094.000	161.000
1095.000	161.000
1096.000	192.000
1097.000	170.000
1098.000	158.000
1099.000	169.000
1100.000	168.000
1101.000	186.000
1102.000	157.000
1103.000	150.000
1104.000	181.000
1105.000	166.000
1106.000	155.000
1107.000	163.000
1108.000	165.000
1109.000	136.000
1110.000	145.000
1111.000	149.000
1112.000	156.000
1113.000	153.000
1114.000	160.000
1115.000	145.000
1116.000	163.000
1117.000	158.000
1118.000	173.000
1119.000	160.000
1120.000	151.000
1121.000	157.000
1122.000	154.000
1123.000	147.000
1124.000	147.000
1125.000	149.000
1126.000	155.000
1127.000	149.000
1128.000	164.000
1129.000	190.000
1130.000	169.000
1131.000	145.000
1132.000	142.000
1133.000	166.000
1134.000	144.000
1135.000	173.000
1136.000	169.000
1137.000	153.000
1138.000	167.000
1139.000	162.000
1140.000	159.000
1141.000	170.000
1142.000	145.000
1143.000	151.000
1144.000	182.000
1145.000	162.000
1146.000	143.000
1147.000	156.000
1148.000	157.000
1149.000	186.000
1150.000	165.000
1151.000	166.000
1152.000	179.000
1153.000	178.000
1154.000	172.000
1155.000	165.000
1156.000	193.000
1157.000	167.000
