Date:	17-Sep-20		Time:	10:18 PM		Version no:	0.00		Project name:	55		Sample name:	222		Section name:	section		Position	1183.215018	mm	E0	0.000000	keV	E1	1.000000	keV/channel	sample surface	7.053916	cm	Tube anode:	Mo		Tube voltage:	30	kV	Tube current:	30	mA	gain	15		std. database			resultfile	result		matrix element	11		sample thickness	1.000000		air passage	0.560000	cm	comments	in position		peaking_time	0.300000	m-sec	trigger_threshold	40.000000	V	mca_bin_width	2.000000	no:	number_mca_channels	2048.000000	no:	gap_time	2048.000000	m-sec	trigger_peaking_time	2048.000000	m-sec	GAINDAC	400		HIGHGAIN	400		TAURC	400		RCTAU	400		RCTAUFRAC	400		livetime	13.526827	seconds	runtime	15.000282	seconds	input_count_rate	46084.127239	cps	output_count_rate	41557.352055	cps	triggers	680956	seconds	events_in_run	608813	seconds	channel	content		1.000	0.000
2.000	0.000
3.000	0.000
4.000	0.000
5.000	0.000
6.000	0.000
7.000	0.000
8.000	0.000
9.000	0.000
10.000	0.000
11.000	0.000
12.000	0.000
13.000	0.000
14.000	0.000
15.000	0.000
16.000	0.000
17.000	0.000
18.000	0.000
19.000	0.000
20.000	0.000
21.000	0.000
22.000	0.000
23.000	0.000
24.000	0.000
25.000	0.000
26.000	0.000
27.000	0.000
28.000	0.000
29.000	0.000
30.000	0.000
31.000	1.000
32.000	0.000
33.000	0.000
34.000	0.000
35.000	0.000
36.000	0.000
37.000	0.000
38.000	0.000
39.000	1.000
40.000	0.000
41.000	0.000
42.000	0.000
43.000	1.000
44.000	0.000
45.000	0.000
46.000	0.000
47.000	0.000
48.000	1.000
49.000	0.000
50.000	0.000
51.000	2.000
52.000	4.000
53.000	1.000
54.000	8.000
55.000	6.000
56.000	10.000
57.000	13.000
58.000	12.000
59.000	34.000
60.000	23.000
61.000	21.000
62.000	23.000
63.000	36.000
64.000	33.000
65.000	26.000
66.000	27.000
67.000	36.000
68.000	29.000
69.000	18.000
70.000	30.000
71.000	13.000
72.000	20.000
73.000	19.000
74.000	26.000
75.000	24.000
76.000	19.000
77.000	22.000
78.000	29.000
79.000	27.000
80.000	15.000
81.000	26.000
82.000	28.000
83.000	28.000
84.000	23.000
85.000	23.000
86.000	17.000
87.000	19.000
88.000	20.000
89.000	20.000
90.000	19.000
91.000	15.000
92.000	31.000
93.000	17.000
94.000	16.000
95.000	14.000
96.000	12.000
97.000	22.000
98.000	22.000
99.000	25.000
100.000	17.000
101.000	22.000
102.000	23.000
103.000	17.000
104.000	14.000
105.000	18.000
106.000	15.000
107.000	14.000
108.000	24.000
109.000	19.000
110.000	16.000
111.000	13.000
112.000	13.000
113.000	21.000
114.000	21.000
115.000	17.000
116.000	11.000
117.000	18.000
118.000	22.000
119.000	15.000
120.000	23.000
121.000	19.000
122.000	15.000
123.000	11.000
124.000	12.000
125.000	12.000
126.000	17.000
127.000	14.000
128.000	11.000
129.000	17.000
130.000	13.000
131.000	14.000
132.000	12.000
133.000	15.000
134.000	12.000
135.000	17.000
136.000	10.000
137.000	17.000
138.000	13.000
139.000	17.000
140.000	16.000
141.000	21.000
142.000	21.000
143.000	21.000
144.000	21.000
145.000	27.000
146.000	28.000
147.000	21.000
148.000	35.000
149.000	24.000
150.000	27.000
151.000	18.000
152.000	16.000
153.000	27.000
154.000	19.000
155.000	15.000
156.000	8.000
157.000	20.000
158.000	20.000
159.000	14.000
160.000	21.000
161.000	14.000
162.000	11.000
163.000	17.000
164.000	22.000
165.000	25.000
166.000	28.000
167.000	34.000
168.000	51.000
169.000	47.000
170.000	50.000
171.000	51.000
172.000	51.000
173.000	41.000
174.000	55.000
175.000	40.000
176.000	29.000
177.000	35.000
178.000	31.000
179.000	30.000
180.000	29.000
181.000	39.000
182.000	44.000
183.000	39.000
184.000	64.000
185.000	89.000
186.000	111.000
187.000	155.000
188.000	188.000
189.000	221.000
190.000	253.000
191.000	253.000
192.000	243.000
193.000	193.000
194.000	195.000
195.000	155.000
196.000	122.000
197.000	90.000
198.000	60.000
199.000	30.000
200.000	25.000
201.000	30.000
202.000	18.000
203.000	22.000
204.000	20.000
205.000	17.000
206.000	21.000
207.000	15.000
208.000	9.000
209.000	19.000
210.000	21.000
211.000	13.000
212.000	27.000
213.000	17.000
214.000	26.000
215.000	16.000
216.000	23.000
217.000	35.000
218.000	26.000
219.000	34.000
220.000	33.000
221.000	57.000
222.000	50.000
223.000	49.000
224.000	48.000
225.000	48.000
226.000	39.000
227.000	30.000
228.000	39.000
229.000	30.000
230.000	26.000
231.000	15.000
232.000	18.000
233.000	15.000
234.000	12.000
235.000	12.000
236.000	19.000
237.000	13.000
238.000	9.000
239.000	8.000
240.000	14.000
241.000	14.000
242.000	14.000
243.000	12.000
244.000	13.000
245.000	10.000
246.000	19.000
247.000	21.000
248.000	25.000
249.000	31.000
250.000	47.000
251.000	58.000
252.000	58.000
253.000	89.000
254.000	116.000
255.000	128.000
256.000	125.000
257.000	160.000
258.000	138.000
259.000	136.000
260.000	99.000
261.000	89.000
262.000	70.000
263.000	58.000
264.000	39.000
265.000	30.000
266.000	25.000
267.000	24.000
268.000	26.000
269.000	24.000
270.000	24.000
271.000	23.000
272.000	28.000
273.000	23.000
274.000	31.000
275.000	29.000
276.000	34.000
277.000	29.000
278.000	25.000
279.000	27.000
280.000	28.000
281.000	25.000
282.000	32.000
283.000	38.000
284.000	42.000
285.000	47.000
286.000	56.000
287.000	59.000
288.000	71.000
289.000	91.000
290.000	69.000
291.000	67.000
292.000	82.000
293.000	64.000
294.000	69.000
295.000	54.000
296.000	41.000
297.000	33.000
298.000	28.000
299.000	31.000
300.000	28.000
301.000	25.000
302.000	17.000
303.000	31.000
304.000	25.000
305.000	28.000
306.000	25.000
307.000	20.000
308.000	36.000
309.000	32.000
310.000	28.000
311.000	40.000
312.000	41.000
313.000	42.000
314.000	51.000
315.000	58.000
316.000	68.000
317.000	85.000
318.000	117.000
319.000	134.000
320.000	163.000
321.000	220.000
322.000	235.000
323.000	278.000
324.000	278.000
325.000	264.000
326.000	229.000
327.000	248.000
328.000	209.000
329.000	180.000
330.000	140.000
331.000	85.000
332.000	84.000
333.000	56.000
334.000	51.000
335.000	33.000
336.000	38.000
337.000	36.000
338.000	43.000
339.000	41.000
340.000	45.000
341.000	47.000
342.000	69.000
343.000	60.000
344.000	100.000
345.000	145.000
346.000	224.000
347.000	295.000
348.000	494.000
349.000	717.000
350.000	1200.000
351.000	1784.000
352.000	2891.000
353.000	4128.000
354.000	6013.000
355.000	8052.000
356.000	10522.000
357.000	13468.000
358.000	15779.000
359.000	18158.000
360.000	20017.000
361.000	20734.000
362.000	20425.000
363.000	19558.000
364.000	17510.000
365.000	14951.000
366.000	12485.000
367.000	9843.000
368.000	7369.000
369.000	5387.000
370.000	3621.000
371.000	2376.000
372.000	1615.000
373.000	984.000
374.000	567.000
375.000	316.000
376.000	290.000
377.000	191.000
378.000	194.000
379.000	173.000
380.000	238.000
381.000	288.000
382.000	386.000
383.000	529.000
384.000	722.000
385.000	912.000
386.000	1211.000
387.000	1553.000
388.000	1931.000
389.000	2276.000
390.000	2613.000
391.000	2974.000
392.000	3173.000
393.000	3068.000
394.000	3032.000
395.000	2902.000
396.000	2502.000
397.000	2032.000
398.000	1628.000
399.000	1333.000
400.000	1000.000
401.000	720.000
402.000	493.000
403.000	313.000
404.000	200.000
405.000	142.000
406.000	77.000
407.000	42.000
408.000	29.000
409.000	21.000
410.000	14.000
411.000	12.000
412.000	5.000
413.000	6.000
414.000	7.000
415.000	7.000
416.000	6.000
417.000	10.000
418.000	3.000
419.000	7.000
420.000	11.000
421.000	8.000
422.000	2.000
423.000	11.000
424.000	11.000
425.000	7.000
426.000	9.000
427.000	17.000
428.000	18.000
429.000	20.000
430.000	22.000
431.000	34.000
432.000	44.000
433.000	51.000
434.000	89.000
435.000	103.000
436.000	129.000
437.000	132.000
438.000	163.000
439.000	181.000
440.000	174.000
441.000	167.000
442.000	179.000
443.000	179.000
444.000	170.000
445.000	126.000
446.000	118.000
447.000	107.000
448.000	83.000
449.000	67.000
450.000	45.000
451.000	41.000
452.000	44.000
453.000	28.000
454.000	39.000
455.000	34.000
456.000	17.000
457.000	26.000
458.000	26.000
459.000	25.000
460.000	19.000
461.000	16.000
462.000	12.000
463.000	15.000
464.000	20.000
465.000	12.000
466.000	22.000
467.000	16.000
468.000	16.000
469.000	8.000
470.000	16.000
471.000	16.000
472.000	20.000
473.000	23.000
474.000	27.000
475.000	22.000
476.000	30.000
477.000	37.000
478.000	35.000
479.000	31.000
480.000	42.000
481.000	50.000
482.000	46.000
483.000	37.000
484.000	35.000
485.000	33.000
486.000	41.000
487.000	38.000
488.000	41.000
489.000	20.000
490.000	24.000
491.000	22.000
492.000	31.000
493.000	25.000
494.000	13.000
495.000	12.000
496.000	19.000
497.000	18.000
498.000	9.000
499.000	16.000
500.000	12.000
501.000	15.000
502.000	19.000
503.000	22.000
504.000	9.000
505.000	12.000
506.000	15.000
507.000	17.000
508.000	16.000
509.000	18.000
510.000	25.000
511.000	13.000
512.000	19.000
513.000	20.000
514.000	16.000
515.000	15.000
516.000	16.000
517.000	32.000
518.000	17.000
519.000	27.000
520.000	21.000
521.000	30.000
522.000	25.000
523.000	36.000
524.000	34.000
525.000	31.000
526.000	35.000
527.000	36.000
528.000	46.000
529.000	45.000
530.000	47.000
531.000	46.000
532.000	29.000
533.000	34.000
534.000	31.000
535.000	38.000
536.000	25.000
537.000	29.000
538.000	34.000
539.000	18.000
540.000	18.000
541.000	17.000
542.000	14.000
543.000	21.000
544.000	14.000
545.000	19.000
546.000	21.000
547.000	16.000
548.000	18.000
549.000	18.000
550.000	17.000
551.000	22.000
552.000	18.000
553.000	23.000
554.000	18.000
555.000	22.000
556.000	20.000
557.000	19.000
558.000	25.000
559.000	24.000
560.000	28.000
561.000	31.000
562.000	27.000
563.000	47.000
564.000	36.000
565.000	45.000
566.000	47.000
567.000	50.000
568.000	76.000
569.000	75.000
570.000	88.000
571.000	94.000
572.000	100.000
573.000	127.000
574.000	141.000
575.000	119.000
576.000	139.000
577.000	139.000
578.000	136.000
579.000	120.000
580.000	112.000
581.000	95.000
582.000	73.000
583.000	78.000
584.000	66.000
585.000	55.000
586.000	55.000
587.000	37.000
588.000	36.000
589.000	34.000
590.000	37.000
591.000	35.000
592.000	31.000
593.000	36.000
594.000	21.000
595.000	28.000
596.000	22.000
597.000	26.000
598.000	22.000
599.000	38.000
600.000	32.000
601.000	31.000
602.000	29.000
603.000	40.000
604.000	44.000
605.000	58.000
606.000	50.000
607.000	62.000
608.000	93.000
609.000	149.000
610.000	133.000
611.000	244.000
612.000	306.000
613.000	452.000
614.000	599.000
615.000	817.000
616.000	1102.000
617.000	1531.000
618.000	1866.000
619.000	2317.000
620.000	2642.000
621.000	2957.000
622.000	3490.000
623.000	3690.000
624.000	3863.000
625.000	3978.000
626.000	3929.000
627.000	3775.000
628.000	3604.000
629.000	3221.000
630.000	2832.000
631.000	2474.000
632.000	2055.000
633.000	1696.000
634.000	1284.000
635.000	1070.000
636.000	806.000
637.000	586.000
638.000	373.000
639.000	289.000
640.000	248.000
641.000	169.000
642.000	122.000
643.000	92.000
644.000	71.000
645.000	65.000
646.000	61.000
647.000	59.000
648.000	56.000
649.000	48.000
650.000	49.000
651.000	56.000
652.000	35.000
653.000	55.000
654.000	52.000
655.000	45.000
656.000	58.000
657.000	51.000
658.000	60.000
659.000	60.000
660.000	52.000
661.000	50.000
662.000	41.000
663.000	61.000
664.000	62.000
665.000	50.000
666.000	61.000
667.000	66.000
668.000	67.000
669.000	49.000
670.000	70.000
671.000	84.000
672.000	72.000
673.000	95.000
674.000	112.000
675.000	119.000
676.000	127.000
677.000	152.000
678.000	177.000
679.000	247.000
680.000	287.000
681.000	310.000
682.000	387.000
683.000	402.000
684.000	481.000
685.000	562.000
686.000	557.000
687.000	628.000
688.000	717.000
689.000	693.000
690.000	691.000
691.000	654.000
692.000	594.000
693.000	560.000
694.000	495.000
695.000	465.000
696.000	368.000
697.000	299.000
698.000	279.000
699.000	218.000
700.000	186.000
701.000	145.000
702.000	127.000
703.000	111.000
704.000	85.000
705.000	79.000
706.000	83.000
707.000	43.000
708.000	49.000
709.000	54.000
710.000	59.000
711.000	44.000
712.000	54.000
713.000	67.000
714.000	66.000
715.000	61.000
716.000	52.000
717.000	68.000
718.000	67.000
719.000	53.000
720.000	73.000
721.000	79.000
722.000	91.000
723.000	76.000
724.000	79.000
725.000	90.000
726.000	82.000
727.000	92.000
728.000	91.000
729.000	76.000
730.000	76.000
731.000	79.000
732.000	92.000
733.000	73.000
734.000	73.000
735.000	81.000
736.000	53.000
737.000	65.000
738.000	71.000
739.000	72.000
740.000	79.000
741.000	58.000
742.000	52.000
743.000	69.000
744.000	63.000
745.000	64.000
746.000	68.000
747.000	63.000
748.000	61.000
749.000	67.000
750.000	69.000
751.000	67.000
752.000	79.000
753.000	72.000
754.000	58.000
755.000	60.000
756.000	61.000
757.000	51.000
758.000	48.000
759.000	60.000
760.000	46.000
761.000	67.000
762.000	72.000
763.000	58.000
764.000	55.000
765.000	81.000
766.000	62.000
767.000	55.000
768.000	63.000
769.000	55.000
770.000	72.000
771.000	61.000
772.000	57.000
773.000	79.000
774.000	69.000
775.000	75.000
776.000	79.000
777.000	73.000
778.000	84.000
779.000	102.000
780.000	101.000
781.000	110.000
782.000	104.000
783.000	113.000
784.000	94.000
785.000	112.000
786.000	103.000
787.000	109.000
788.000	121.000
789.000	120.000
790.000	117.000
791.000	110.000
792.000	117.000
793.000	120.000
794.000	128.000
795.000	129.000
796.000	121.000
797.000	123.000
798.000	121.000
799.000	133.000
800.000	122.000
801.000	128.000
802.000	132.000
803.000	123.000
804.000	144.000
805.000	141.000
806.000	125.000
807.000	126.000
808.000	164.000
809.000	161.000
810.000	170.000
811.000	212.000
812.000	193.000
813.000	222.000
814.000	236.000
815.000	256.000
816.000	235.000
817.000	270.000
818.000	285.000
819.000	301.000
820.000	252.000
821.000	252.000
822.000	244.000
823.000	250.000
824.000	252.000
825.000	236.000
826.000	193.000
827.000	194.000
828.000	150.000
829.000	162.000
830.000	160.000
831.000	135.000
832.000	123.000
833.000	116.000
834.000	126.000
835.000	107.000
836.000	140.000
837.000	101.000
838.000	116.000
839.000	106.000
840.000	133.000
841.000	129.000
842.000	116.000
843.000	95.000
844.000	119.000
845.000	131.000
846.000	127.000
847.000	119.000
848.000	119.000
849.000	118.000
850.000	120.000
851.000	90.000
852.000	116.000
853.000	110.000
854.000	115.000
855.000	93.000
856.000	105.000
857.000	100.000
858.000	108.000
859.000	94.000
860.000	128.000
861.000	100.000
862.000	97.000
863.000	92.000
864.000	117.000
865.000	95.000
866.000	103.000
867.000	103.000
868.000	110.000
869.000	98.000
870.000	125.000
871.000	103.000
872.000	90.000
873.000	94.000
874.000	112.000
875.000	127.000
876.000	100.000
877.000	103.000
878.000	102.000
879.000	94.000
880.000	111.000
881.000	101.000
882.000	107.000
883.000	118.000
884.000	117.000
885.000	107.000
886.000	118.000
887.000	114.000
888.000	103.000
889.000	82.000
890.000	111.000
891.000	113.000
892.000	128.000
893.000	110.000
894.000	109.000
895.000	121.000
896.000	104.000
897.000	123.000
898.000	126.000
899.000	128.000
900.000	146.000
901.000	156.000
902.000	119.000
903.000	134.000
904.000	133.000
905.000	151.000
906.000	120.000
907.000	128.000
908.000	119.000
909.000	153.000
910.000	143.000
911.000	154.000
912.000	172.000
913.000	141.000
914.000	158.000
915.000	165.000
916.000	161.000
917.000	139.000
918.000	158.000
919.000	159.000
920.000	141.000
921.000	140.000
922.000	176.000
923.000	166.000
924.000	172.000
925.000	167.000
926.000	145.000
927.000	175.000
928.000	145.000
929.000	162.000
930.000	183.000
931.000	173.000
932.000	188.000
933.000	174.000
934.000	180.000
935.000	204.000
936.000	183.000
937.000	226.000
938.000	238.000
939.000	239.000
940.000	230.000
941.000	254.000
942.000	246.000
943.000	238.000
944.000	223.000
945.000	250.000
946.000	238.000
947.000	240.000
948.000	206.000
949.000	206.000
950.000	193.000
951.000	216.000
952.000	198.000
953.000	180.000
954.000	183.000
955.000	174.000
956.000	183.000
957.000	187.000
958.000	171.000
959.000	179.000
960.000	170.000
961.000	146.000
962.000	155.000
963.000	166.000
964.000	162.000
965.000	140.000
966.000	169.000
967.000	166.000
968.000	153.000
969.000	167.000
970.000	159.000
971.000	134.000
972.000	173.000
973.000	173.000
974.000	169.000
975.000	166.000
976.000	160.000
977.000	161.000
978.000	165.000
979.000	177.000
980.000	147.000
981.000	151.000
982.000	160.000
983.000	144.000
984.000	138.000
985.000	125.000
986.000	163.000
987.000	145.000
988.000	140.000
989.000	124.000
990.000	130.000
991.000	138.000
992.000	138.000
993.000	140.000
994.000	124.000
995.000	124.000
996.000	110.000
997.000	137.000
998.000	121.000
999.000	130.000
1000.000	111.000
1001.000	100.000
1002.000	138.000
1003.000	124.000
1004.000	146.000
1005.000	107.000
1006.000	112.000
1007.000	103.000
1008.000	121.000
1009.000	137.000
1010.000	111.000
1011.000	117.000
1012.000	128.000
1013.000	122.000
1014.000	130.000
1015.000	137.000
1016.000	120.000
1017.000	131.000
1018.000	137.000
1019.000	130.000
1020.000	108.000
1021.000	149.000
1022.000	129.000
1023.000	128.000
1024.000	119.000
1025.000	119.000
1026.000	117.000
1027.000	109.000
1028.000	147.000
1029.000	147.000
1030.000	144.000
1031.000	136.000
1032.000	129.000
1033.000	154.000
1034.000	163.000
1035.000	145.000
1036.000	159.000
1037.000	123.000
1038.000	108.000
1039.000	137.000
1040.000	127.000
1041.000	154.000
1042.000	144.000
1043.000	135.000
1044.000	139.000
1045.000	124.000
1046.000	125.000
1047.000	144.000
1048.000	132.000
1049.000	146.000
1050.000	139.000
1051.000	142.000
1052.000	147.000
1053.000	133.000
1054.000	146.000
1055.000	154.000
1056.000	137.000
1057.000	127.000
1058.000	165.000
1059.000	137.000
1060.000	161.000
1061.000	154.000
1062.000	141.000
1063.000	150.000
1064.000	157.000
1065.000	137.000
1066.000	139.000
1067.000	135.000
1068.000	129.000
1069.000	146.000
1070.000	135.000
1071.000	158.000
1072.000	171.000
1073.000	136.000
1074.000	134.000
1075.000	139.000
1076.000	147.000
1077.000	153.000
1078.000	156.000
1079.000	137.000
1080.000	132.000
1081.000	160.000
1082.000	145.000
1083.000	154.000
1084.000	133.000
1085.000	147.000
1086.000	127.000
1087.000	159.000
1088.000	158.000
1089.000	121.000
1090.000	149.000
1091.000	161.000
1092.000	140.000
1093.000	173.000
1094.000	154.000
1095.000	143.000
1096.000	151.000
1097.000	166.000
1098.000	150.000
1099.000	158.000
1100.000	168.000
1101.000	161.000
1102.000	187.000
1103.000	148.000
1104.000	162.000
1105.000	163.000
1106.000	131.000
1107.000	150.000
1108.000	143.000
1109.000	143.000
1110.000	148.000
1111.000	135.000
1112.000	154.000
1113.000	138.000
1114.000	117.000
1115.000	142.000
1116.000	148.000
1117.000	149.000
1118.000	125.000
1119.000	126.000
1120.000	152.000
1121.000	153.000
1122.000	135.000
1123.000	164.000
1124.000	135.000
1125.000	159.000
1126.000	169.000
1127.000	166.000
1128.000	156.000
1129.000	128.000
1130.000	144.000
1131.000	139.000
1132.000	162.000
1133.000	152.000
1134.000	156.000
1135.000	135.000
1136.000	178.000
1137.000	152.000
1138.000	146.000
1139.000	159.000
1140.000	135.000
1141.000	166.000
1142.000	139.000
1143.000	132.000
1144.000	145.000
1145.000	170.000
1146.000	164.000
1147.000	162.000
1148.000	151.000
1149.000	128.000
1150.000	144.000
1151.000	179.000
1152.000	168.000
1153.000	168.000
1154.000	169.000
1155.000	174.000
1156.000	170.000
1157.000	196.000
1158.000	196.000
