Date:	17-Sep-20		Time:	11:35 PM		Version no:	0.00		Project name:	55		Sample name:	222		Section name:	section		Position	1473.215018	mm	E0	0.000000	keV	E1	1.000000	keV/channel	sample surface	6.941543	cm	Tube anode:	Mo		Tube voltage:	30	kV	Tube current:	30	mA	gain	15		std. database			resultfile	result		matrix element	11		sample thickness	1.000000		air passage	0.560000	cm	comments	in position		peaking_time	0.300000	m-sec	trigger_threshold	40.000000	V	mca_bin_width	2.000000	no:	number_mca_channels	2048.000000	no:	gap_time	2048.000000	m-sec	trigger_peaking_time	2048.000000	m-sec	GAINDAC	400		HIGHGAIN	400		TAURC	400		RCTAU	400		RCTAUFRAC	400		livetime	13.450668	seconds	runtime	15.000342	seconds	input_count_rate	45314.775021	cps	output_count_rate	40633.338872	cps	triggers	669196	seconds	events_in_run	594284	seconds	channel	content		1.000	0.000
2.000	0.000
3.000	0.000
4.000	0.000
5.000	0.000
6.000	0.000
7.000	0.000
8.000	0.000
9.000	0.000
10.000	0.000
11.000	0.000
12.000	0.000
13.000	0.000
14.000	0.000
15.000	0.000
16.000	0.000
17.000	0.000
18.000	0.000
19.000	0.000
20.000	0.000
21.000	0.000
22.000	0.000
23.000	0.000
24.000	0.000
25.000	0.000
26.000	0.000
27.000	0.000
28.000	0.000
29.000	0.000
30.000	0.000
31.000	1.000
32.000	0.000
33.000	0.000
34.000	2.000
35.000	0.000
36.000	0.000
37.000	1.000
38.000	0.000
39.000	0.000
40.000	0.000
41.000	1.000
42.000	0.000
43.000	0.000
44.000	1.000
45.000	1.000
46.000	1.000
47.000	0.000
48.000	1.000
49.000	0.000
50.000	0.000
51.000	0.000
52.000	4.000
53.000	1.000
54.000	4.000
55.000	10.000
56.000	11.000
57.000	18.000
58.000	16.000
59.000	16.000
60.000	24.000
61.000	34.000
62.000	38.000
63.000	35.000
64.000	39.000
65.000	33.000
66.000	32.000
67.000	29.000
68.000	23.000
69.000	33.000
70.000	22.000
71.000	23.000
72.000	29.000
73.000	15.000
74.000	21.000
75.000	24.000
76.000	23.000
77.000	28.000
78.000	16.000
79.000	25.000
80.000	25.000
81.000	26.000
82.000	32.000
83.000	21.000
84.000	27.000
85.000	24.000
86.000	24.000
87.000	22.000
88.000	27.000
89.000	24.000
90.000	27.000
91.000	22.000
92.000	22.000
93.000	23.000
94.000	23.000
95.000	16.000
96.000	23.000
97.000	22.000
98.000	22.000
99.000	19.000
100.000	25.000
101.000	14.000
102.000	23.000
103.000	21.000
104.000	23.000
105.000	22.000
106.000	13.000
107.000	9.000
108.000	17.000
109.000	21.000
110.000	30.000
111.000	25.000
112.000	14.000
113.000	18.000
114.000	13.000
115.000	16.000
116.000	6.000
117.000	14.000
118.000	14.000
119.000	19.000
120.000	18.000
121.000	13.000
122.000	17.000
123.000	13.000
124.000	16.000
125.000	15.000
126.000	12.000
127.000	16.000
128.000	12.000
129.000	12.000
130.000	14.000
131.000	9.000
132.000	13.000
133.000	8.000
134.000	14.000
135.000	13.000
136.000	17.000
137.000	22.000
138.000	14.000
139.000	11.000
140.000	20.000
141.000	19.000
142.000	36.000
143.000	26.000
144.000	28.000
145.000	26.000
146.000	39.000
147.000	25.000
148.000	29.000
149.000	22.000
150.000	22.000
151.000	26.000
152.000	17.000
153.000	18.000
154.000	21.000
155.000	20.000
156.000	21.000
157.000	16.000
158.000	12.000
159.000	15.000
160.000	7.000
161.000	11.000
162.000	21.000
163.000	18.000
164.000	30.000
165.000	49.000
166.000	35.000
167.000	55.000
168.000	62.000
169.000	67.000
170.000	79.000
171.000	88.000
172.000	78.000
173.000	70.000
174.000	69.000
175.000	62.000
176.000	47.000
177.000	34.000
178.000	34.000
179.000	23.000
180.000	36.000
181.000	37.000
182.000	34.000
183.000	44.000
184.000	52.000
185.000	74.000
186.000	79.000
187.000	103.000
188.000	161.000
189.000	148.000
190.000	188.000
191.000	194.000
192.000	192.000
193.000	185.000
194.000	136.000
195.000	117.000
196.000	75.000
197.000	62.000
198.000	32.000
199.000	34.000
200.000	27.000
201.000	18.000
202.000	11.000
203.000	13.000
204.000	11.000
205.000	10.000
206.000	14.000
207.000	6.000
208.000	13.000
209.000	16.000
210.000	26.000
211.000	10.000
212.000	20.000
213.000	17.000
214.000	19.000
215.000	21.000
216.000	19.000
217.000	18.000
218.000	30.000
219.000	32.000
220.000	27.000
221.000	38.000
222.000	42.000
223.000	35.000
224.000	28.000
225.000	33.000
226.000	41.000
227.000	39.000
228.000	22.000
229.000	25.000
230.000	14.000
231.000	19.000
232.000	14.000
233.000	9.000
234.000	17.000
235.000	10.000
236.000	14.000
237.000	11.000
238.000	12.000
239.000	10.000
240.000	14.000
241.000	9.000
242.000	12.000
243.000	11.000
244.000	16.000
245.000	17.000
246.000	15.000
247.000	19.000
248.000	30.000
249.000	31.000
250.000	37.000
251.000	53.000
252.000	66.000
253.000	91.000
254.000	118.000
255.000	122.000
256.000	118.000
257.000	138.000
258.000	136.000
259.000	107.000
260.000	96.000
261.000	87.000
262.000	69.000
263.000	55.000
264.000	43.000
265.000	27.000
266.000	16.000
267.000	12.000
268.000	15.000
269.000	12.000
270.000	31.000
271.000	24.000
272.000	28.000
273.000	27.000
274.000	20.000
275.000	22.000
276.000	19.000
277.000	25.000
278.000	24.000
279.000	27.000
280.000	23.000
281.000	29.000
282.000	22.000
283.000	36.000
284.000	38.000
285.000	52.000
286.000	58.000
287.000	69.000
288.000	78.000
289.000	67.000
290.000	66.000
291.000	71.000
292.000	61.000
293.000	57.000
294.000	57.000
295.000	46.000
296.000	32.000
297.000	25.000
298.000	19.000
299.000	21.000
300.000	22.000
301.000	17.000
302.000	21.000
303.000	22.000
304.000	19.000
305.000	25.000
306.000	25.000
307.000	25.000
308.000	19.000
309.000	27.000
310.000	30.000
311.000	29.000
312.000	43.000
313.000	33.000
314.000	60.000
315.000	83.000
316.000	100.000
317.000	155.000
318.000	195.000
319.000	241.000
320.000	294.000
321.000	362.000
322.000	359.000
323.000	470.000
324.000	485.000
325.000	451.000
326.000	485.000
327.000	404.000
328.000	379.000
329.000	297.000
330.000	232.000
331.000	193.000
332.000	130.000
333.000	94.000
334.000	63.000
335.000	56.000
336.000	40.000
337.000	33.000
338.000	23.000
339.000	38.000
340.000	37.000
341.000	43.000
342.000	52.000
343.000	70.000
344.000	75.000
345.000	141.000
346.000	175.000
347.000	253.000
348.000	376.000
349.000	592.000
350.000	885.000
351.000	1395.000
352.000	2072.000
353.000	3028.000
354.000	4233.000
355.000	5709.000
356.000	7632.000
357.000	9646.000
358.000	11616.000
359.000	13170.000
360.000	14222.000
361.000	15004.000
362.000	14682.000
363.000	14029.000
364.000	12702.000
365.000	10954.000
366.000	8975.000
367.000	7046.000
368.000	5369.000
369.000	3802.000
370.000	2655.000
371.000	1762.000
372.000	1155.000
373.000	675.000
374.000	418.000
375.000	255.000
376.000	188.000
377.000	119.000
378.000	122.000
379.000	129.000
380.000	171.000
381.000	199.000
382.000	282.000
383.000	348.000
384.000	520.000
385.000	680.000
386.000	840.000
387.000	1174.000
388.000	1408.000
389.000	1561.000
390.000	1974.000
391.000	2154.000
392.000	2227.000
393.000	2290.000
394.000	2178.000
395.000	2021.000
396.000	1839.000
397.000	1566.000
398.000	1270.000
399.000	989.000
400.000	719.000
401.000	551.000
402.000	331.000
403.000	260.000
404.000	179.000
405.000	94.000
406.000	68.000
407.000	22.000
408.000	26.000
409.000	20.000
410.000	15.000
411.000	8.000
412.000	11.000
413.000	15.000
414.000	3.000
415.000	6.000
416.000	6.000
417.000	12.000
418.000	8.000
419.000	8.000
420.000	5.000
421.000	8.000
422.000	11.000
423.000	5.000
424.000	12.000
425.000	12.000
426.000	16.000
427.000	18.000
428.000	27.000
429.000	25.000
430.000	46.000
431.000	36.000
432.000	58.000
433.000	75.000
434.000	109.000
435.000	120.000
436.000	159.000
437.000	190.000
438.000	216.000
439.000	249.000
440.000	254.000
441.000	258.000
442.000	251.000
443.000	234.000
444.000	213.000
445.000	197.000
446.000	172.000
447.000	131.000
448.000	112.000
449.000	108.000
450.000	84.000
451.000	62.000
452.000	60.000
453.000	42.000
454.000	51.000
455.000	31.000
456.000	43.000
457.000	39.000
458.000	37.000
459.000	28.000
460.000	24.000
461.000	35.000
462.000	31.000
463.000	28.000
464.000	16.000
465.000	11.000
466.000	24.000
467.000	15.000
468.000	20.000
469.000	19.000
470.000	23.000
471.000	23.000
472.000	26.000
473.000	31.000
474.000	32.000
475.000	34.000
476.000	47.000
477.000	46.000
478.000	53.000
479.000	60.000
480.000	61.000
481.000	50.000
482.000	81.000
483.000	64.000
484.000	64.000
485.000	55.000
486.000	50.000
487.000	49.000
488.000	45.000
489.000	32.000
490.000	35.000
491.000	27.000
492.000	15.000
493.000	26.000
494.000	20.000
495.000	15.000
496.000	21.000
497.000	25.000
498.000	21.000
499.000	16.000
500.000	18.000
501.000	19.000
502.000	20.000
503.000	18.000
504.000	28.000
505.000	26.000
506.000	15.000
507.000	18.000
508.000	26.000
509.000	26.000
510.000	21.000
511.000	21.000
512.000	18.000
513.000	26.000
514.000	26.000
515.000	21.000
516.000	25.000
517.000	37.000
518.000	24.000
519.000	33.000
520.000	27.000
521.000	27.000
522.000	42.000
523.000	40.000
524.000	45.000
525.000	48.000
526.000	52.000
527.000	46.000
528.000	58.000
529.000	51.000
530.000	50.000
531.000	63.000
532.000	49.000
533.000	43.000
534.000	41.000
535.000	35.000
536.000	34.000
537.000	24.000
538.000	24.000
539.000	32.000
540.000	27.000
541.000	25.000
542.000	23.000
543.000	23.000
544.000	21.000
545.000	30.000
546.000	25.000
547.000	24.000
548.000	29.000
549.000	23.000
550.000	28.000
551.000	24.000
552.000	32.000
553.000	27.000
554.000	28.000
555.000	26.000
556.000	38.000
557.000	33.000
558.000	29.000
559.000	36.000
560.000	23.000
561.000	34.000
562.000	29.000
563.000	37.000
564.000	27.000
565.000	51.000
566.000	44.000
567.000	51.000
568.000	64.000
569.000	51.000
570.000	68.000
571.000	80.000
572.000	86.000
573.000	113.000
574.000	93.000
575.000	112.000
576.000	124.000
577.000	102.000
578.000	104.000
579.000	88.000
580.000	85.000
581.000	96.000
582.000	70.000
583.000	69.000
584.000	53.000
585.000	50.000
586.000	49.000
587.000	50.000
588.000	46.000
589.000	32.000
590.000	46.000
591.000	27.000
592.000	24.000
593.000	29.000
594.000	27.000
595.000	29.000
596.000	35.000
597.000	38.000
598.000	48.000
599.000	41.000
600.000	48.000
601.000	46.000
602.000	47.000
603.000	49.000
604.000	68.000
605.000	56.000
606.000	72.000
607.000	114.000
608.000	130.000
609.000	197.000
610.000	265.000
611.000	373.000
612.000	497.000
613.000	741.000
614.000	1034.000
615.000	1412.000
616.000	1892.000
617.000	2373.000
618.000	3029.000
619.000	3659.000
620.000	4276.000
621.000	4970.000
622.000	5566.000
623.000	6071.000
624.000	6400.000
625.000	6541.000
626.000	6464.000
627.000	6312.000
628.000	5958.000
629.000	5371.000
630.000	4593.000
631.000	3963.000
632.000	3412.000
633.000	2676.000
634.000	2115.000
635.000	1650.000
636.000	1254.000
637.000	933.000
638.000	650.000
639.000	437.000
640.000	317.000
641.000	216.000
642.000	154.000
643.000	115.000
644.000	116.000
645.000	91.000
646.000	82.000
647.000	61.000
648.000	71.000
649.000	53.000
650.000	70.000
651.000	50.000
652.000	75.000
653.000	54.000
654.000	52.000
655.000	58.000
656.000	59.000
657.000	69.000
658.000	47.000
659.000	61.000
660.000	73.000
661.000	58.000
662.000	64.000
663.000	64.000
664.000	66.000
665.000	63.000
666.000	82.000
667.000	98.000
668.000	71.000
669.000	100.000
670.000	92.000
671.000	91.000
672.000	97.000
673.000	121.000
674.000	138.000
675.000	149.000
676.000	195.000
677.000	247.000
678.000	303.000
679.000	367.000
680.000	387.000
681.000	503.000
682.000	604.000
683.000	705.000
684.000	767.000
685.000	869.000
686.000	957.000
687.000	1001.000
688.000	1150.000
689.000	1061.000
690.000	1102.000
691.000	1006.000
692.000	970.000
693.000	926.000
694.000	813.000
695.000	705.000
696.000	578.000
697.000	467.000
698.000	426.000
699.000	364.000
700.000	242.000
701.000	239.000
702.000	178.000
703.000	140.000
704.000	112.000
705.000	91.000
706.000	91.000
707.000	62.000
708.000	76.000
709.000	62.000
710.000	74.000
711.000	56.000
712.000	64.000
713.000	72.000
714.000	60.000
715.000	86.000
716.000	74.000
717.000	80.000
718.000	64.000
719.000	85.000
720.000	80.000
721.000	77.000
722.000	92.000
723.000	73.000
724.000	103.000
725.000	91.000
726.000	82.000
727.000	77.000
728.000	81.000
729.000	88.000
730.000	103.000
731.000	104.000
732.000	94.000
733.000	94.000
734.000	75.000
735.000	78.000
736.000	63.000
737.000	90.000
738.000	70.000
739.000	66.000
740.000	71.000
741.000	72.000
742.000	67.000
743.000	62.000
744.000	74.000
745.000	72.000
746.000	76.000
747.000	63.000
748.000	63.000
749.000	68.000
750.000	70.000
751.000	84.000
752.000	59.000
753.000	69.000
754.000	64.000
755.000	72.000
756.000	83.000
757.000	78.000
758.000	67.000
759.000	67.000
760.000	73.000
761.000	64.000
762.000	73.000
763.000	81.000
764.000	87.000
765.000	70.000
766.000	81.000
767.000	78.000
768.000	70.000
769.000	81.000
770.000	83.000
771.000	75.000
772.000	98.000
773.000	84.000
774.000	80.000
775.000	95.000
776.000	106.000
777.000	105.000
778.000	105.000
779.000	111.000
780.000	110.000
781.000	109.000
782.000	111.000
783.000	140.000
784.000	107.000
785.000	126.000
786.000	145.000
787.000	141.000
788.000	142.000
789.000	152.000
790.000	133.000
791.000	148.000
792.000	139.000
793.000	143.000
794.000	137.000
795.000	147.000
796.000	159.000
797.000	138.000
798.000	132.000
799.000	157.000
800.000	149.000
801.000	123.000
802.000	153.000
803.000	154.000
804.000	159.000
805.000	173.000
806.000	164.000
807.000	147.000
808.000	174.000
809.000	196.000
810.000	183.000
811.000	204.000
812.000	217.000
813.000	241.000
814.000	273.000
815.000	277.000
816.000	280.000
817.000	267.000
818.000	298.000
819.000	273.000
820.000	301.000
821.000	298.000
822.000	297.000
823.000	266.000
824.000	256.000
825.000	257.000
826.000	232.000
827.000	231.000
828.000	211.000
829.000	169.000
830.000	165.000
831.000	170.000
832.000	163.000
833.000	124.000
834.000	147.000
835.000	109.000
836.000	147.000
837.000	131.000
838.000	140.000
839.000	115.000
840.000	135.000
841.000	123.000
842.000	134.000
843.000	141.000
844.000	154.000
845.000	139.000
846.000	135.000
847.000	148.000
848.000	151.000
849.000	125.000
850.000	125.000
851.000	124.000
852.000	118.000
853.000	112.000
854.000	105.000
855.000	129.000
856.000	115.000
857.000	124.000
858.000	110.000
859.000	100.000
860.000	114.000
861.000	132.000
862.000	112.000
863.000	141.000
864.000	94.000
865.000	103.000
866.000	135.000
867.000	106.000
868.000	122.000
869.000	120.000
870.000	128.000
871.000	109.000
872.000	110.000
873.000	108.000
874.000	109.000
875.000	123.000
876.000	127.000
877.000	112.000
878.000	101.000
879.000	115.000
880.000	120.000
881.000	99.000
882.000	132.000
883.000	122.000
884.000	131.000
885.000	123.000
886.000	123.000
887.000	106.000
888.000	122.000
889.000	115.000
890.000	135.000
891.000	137.000
892.000	149.000
893.000	134.000
894.000	133.000
895.000	140.000
896.000	149.000
897.000	155.000
898.000	129.000
899.000	133.000
900.000	139.000
901.000	154.000
902.000	159.000
903.000	172.000
904.000	159.000
905.000	128.000
906.000	158.000
907.000	135.000
908.000	151.000
909.000	186.000
910.000	158.000
911.000	168.000
912.000	173.000
913.000	197.000
914.000	168.000
915.000	167.000
916.000	180.000
917.000	208.000
918.000	185.000
919.000	155.000
920.000	180.000
921.000	179.000
922.000	198.000
923.000	160.000
924.000	168.000
925.000	188.000
926.000	166.000
927.000	211.000
928.000	205.000
929.000	187.000
930.000	196.000
931.000	207.000
932.000	214.000
933.000	209.000
934.000	204.000
935.000	236.000
936.000	228.000
937.000	198.000
938.000	225.000
939.000	237.000
940.000	234.000
941.000	275.000
942.000	260.000
943.000	245.000
944.000	262.000
945.000	245.000
946.000	235.000
947.000	262.000
948.000	244.000
949.000	227.000
950.000	227.000
951.000	250.000
952.000	212.000
953.000	217.000
954.000	200.000
955.000	188.000
956.000	165.000
957.000	185.000
958.000	162.000
959.000	187.000
960.000	185.000
961.000	160.000
962.000	178.000
963.000	187.000
964.000	166.000
965.000	167.000
966.000	194.000
967.000	169.000
968.000	179.000
969.000	193.000
970.000	212.000
971.000	178.000
972.000	193.000
973.000	172.000
974.000	178.000
975.000	168.000
976.000	196.000
977.000	183.000
978.000	174.000
979.000	165.000
980.000	170.000
981.000	161.000
982.000	168.000
983.000	182.000
984.000	161.000
985.000	146.000
986.000	132.000
987.000	148.000
988.000	165.000
989.000	146.000
990.000	150.000
991.000	164.000
992.000	156.000
993.000	138.000
994.000	149.000
995.000	143.000
996.000	136.000
997.000	135.000
998.000	133.000
999.000	114.000
1000.000	134.000
1001.000	131.000
1002.000	132.000
1003.000	142.000
1004.000	144.000
1005.000	133.000
1006.000	138.000
1007.000	130.000
1008.000	120.000
1009.000	129.000
1010.000	157.000
1011.000	142.000
1012.000	128.000
1013.000	141.000
1014.000	133.000
1015.000	137.000
1016.000	152.000
1017.000	129.000
1018.000	130.000
1019.000	120.000
1020.000	124.000
1021.000	138.000
1022.000	147.000
1023.000	124.000
1024.000	131.000
1025.000	153.000
1026.000	170.000
1027.000	144.000
1028.000	140.000
1029.000	150.000
1030.000	157.000
1031.000	148.000
1032.000	163.000
1033.000	137.000
1034.000	134.000
1035.000	152.000
1036.000	145.000
1037.000	143.000
1038.000	164.000
1039.000	138.000
1040.000	130.000
1041.000	154.000
1042.000	158.000
1043.000	165.000
1044.000	157.000
1045.000	149.000
1046.000	140.000
1047.000	131.000
1048.000	145.000
1049.000	141.000
1050.000	142.000
1051.000	143.000
1052.000	159.000
1053.000	156.000
1054.000	160.000
1055.000	164.000
1056.000	157.000
1057.000	152.000
1058.000	145.000
1059.000	159.000
1060.000	160.000
1061.000	156.000
1062.000	135.000
1063.000	153.000
1064.000	152.000
1065.000	153.000
1066.000	165.000
1067.000	168.000
1068.000	144.000
1069.000	170.000
1070.000	145.000
1071.000	162.000
1072.000	182.000
1073.000	158.000
1074.000	150.000
1075.000	146.000
1076.000	153.000
1077.000	156.000
1078.000	150.000
1079.000	164.000
1080.000	139.000
1081.000	172.000
1082.000	147.000
1083.000	154.000
1084.000	140.000
1085.000	164.000
1086.000	137.000
1087.000	148.000
1088.000	140.000
1089.000	151.000
1090.000	167.000
1091.000	162.000
1092.000	158.000
1093.000	168.000
1094.000	177.000
1095.000	169.000
1096.000	194.000
1097.000	174.000
1098.000	172.000
1099.000	160.000
1100.000	156.000
1101.000	178.000
1102.000	167.000
1103.000	172.000
1104.000	162.000
1105.000	180.000
1106.000	184.000
1107.000	215.000
1108.000	155.000
1109.000	179.000
1110.000	157.000
1111.000	182.000
1112.000	182.000
1113.000	178.000
1114.000	148.000
1115.000	169.000
1116.000	169.000
1117.000	158.000
1118.000	148.000
1119.000	163.000
1120.000	157.000
1121.000	171.000
1122.000	157.000
1123.000	154.000
1124.000	154.000
1125.000	168.000
1126.000	151.000
1127.000	181.000
1128.000	167.000
1129.000	161.000
1130.000	164.000
1131.000	166.000
1132.000	150.000
1133.000	166.000
1134.000	152.000
1135.000	159.000
1136.000	151.000
1137.000	194.000
1138.000	175.000
1139.000	162.000
1140.000	162.000
1141.000	154.000
1142.000	174.000
1143.000	160.000
1144.000	142.000
1145.000	157.000
1146.000	161.000
1147.000	162.000
1148.000	146.000
1149.000	131.000
1150.000	172.000
1151.000	188.000
1152.000	151.000
1153.000	190.000
1154.000	192.000
1155.000	184.000
1156.000	188.000
