Date:	17-Sep-20		Time:	10:39 PM		Version no:	0.00		Project name:	55		Sample name:	222		Section name:	section		Position	1263.215018	mm	E0	0.000000	keV	E1	1.000000	keV/channel	sample surface	7.084261	cm	Tube anode:	Mo		Tube voltage:	30	kV	Tube current:	30	mA	gain	15		std. database			resultfile	result		matrix element	11		sample thickness	1.000000		air passage	0.560000	cm	comments	in position		peaking_time	0.300000	m-sec	trigger_threshold	40.000000	V	mca_bin_width	2.000000	no:	number_mca_channels	2048.000000	no:	gap_time	2048.000000	m-sec	trigger_peaking_time	2048.000000	m-sec	GAINDAC	400		HIGHGAIN	400		TAURC	400		RCTAU	400		RCTAUFRAC	400		livetime	13.459374	seconds	runtime	15.000129	seconds	input_count_rate	47249.299704	cps	output_count_rate	42396.035394	cps	triggers	697594	seconds	events_in_run	620814	seconds	channel	content		1.000	0.000
2.000	0.000
3.000	0.000
4.000	0.000
5.000	0.000
6.000	0.000
7.000	0.000
8.000	0.000
9.000	0.000
10.000	0.000
11.000	0.000
12.000	0.000
13.000	0.000
14.000	0.000
15.000	0.000
16.000	0.000
17.000	0.000
18.000	0.000
19.000	0.000
20.000	0.000
21.000	0.000
22.000	0.000
23.000	0.000
24.000	0.000
25.000	0.000
26.000	0.000
27.000	0.000
28.000	0.000
29.000	0.000
30.000	0.000
31.000	0.000
32.000	0.000
33.000	0.000
34.000	0.000
35.000	0.000
36.000	0.000
37.000	1.000
38.000	0.000
39.000	0.000
40.000	0.000
41.000	1.000
42.000	0.000
43.000	0.000
44.000	0.000
45.000	1.000
46.000	0.000
47.000	0.000
48.000	1.000
49.000	0.000
50.000	1.000
51.000	2.000
52.000	1.000
53.000	5.000
54.000	0.000
55.000	8.000
56.000	5.000
57.000	7.000
58.000	11.000
59.000	27.000
60.000	23.000
61.000	27.000
62.000	31.000
63.000	36.000
64.000	34.000
65.000	28.000
66.000	24.000
67.000	34.000
68.000	25.000
69.000	32.000
70.000	26.000
71.000	24.000
72.000	25.000
73.000	19.000
74.000	25.000
75.000	17.000
76.000	24.000
77.000	25.000
78.000	26.000
79.000	28.000
80.000	27.000
81.000	30.000
82.000	17.000
83.000	25.000
84.000	29.000
85.000	25.000
86.000	36.000
87.000	36.000
88.000	26.000
89.000	26.000
90.000	22.000
91.000	25.000
92.000	22.000
93.000	27.000
94.000	21.000
95.000	18.000
96.000	24.000
97.000	23.000
98.000	18.000
99.000	16.000
100.000	24.000
101.000	16.000
102.000	11.000
103.000	21.000
104.000	30.000
105.000	12.000
106.000	20.000
107.000	12.000
108.000	20.000
109.000	16.000
110.000	12.000
111.000	17.000
112.000	14.000
113.000	15.000
114.000	22.000
115.000	16.000
116.000	17.000
117.000	12.000
118.000	24.000
119.000	20.000
120.000	14.000
121.000	16.000
122.000	22.000
123.000	25.000
124.000	23.000
125.000	14.000
126.000	12.000
127.000	10.000
128.000	18.000
129.000	10.000
130.000	17.000
131.000	13.000
132.000	11.000
133.000	18.000
134.000	12.000
135.000	11.000
136.000	17.000
137.000	15.000
138.000	18.000
139.000	18.000
140.000	21.000
141.000	24.000
142.000	22.000
143.000	20.000
144.000	25.000
145.000	30.000
146.000	26.000
147.000	23.000
148.000	28.000
149.000	25.000
150.000	19.000
151.000	19.000
152.000	22.000
153.000	22.000
154.000	19.000
155.000	24.000
156.000	15.000
157.000	12.000
158.000	15.000
159.000	12.000
160.000	11.000
161.000	18.000
162.000	18.000
163.000	15.000
164.000	17.000
165.000	43.000
166.000	33.000
167.000	41.000
168.000	54.000
169.000	69.000
170.000	67.000
171.000	77.000
172.000	60.000
173.000	57.000
174.000	40.000
175.000	52.000
176.000	41.000
177.000	36.000
178.000	26.000
179.000	29.000
180.000	30.000
181.000	38.000
182.000	44.000
183.000	36.000
184.000	71.000
185.000	88.000
186.000	95.000
187.000	147.000
188.000	162.000
189.000	219.000
190.000	217.000
191.000	246.000
192.000	235.000
193.000	191.000
194.000	166.000
195.000	145.000
196.000	99.000
197.000	70.000
198.000	52.000
199.000	35.000
200.000	31.000
201.000	25.000
202.000	16.000
203.000	19.000
204.000	20.000
205.000	20.000
206.000	20.000
207.000	18.000
208.000	8.000
209.000	15.000
210.000	21.000
211.000	9.000
212.000	23.000
213.000	17.000
214.000	17.000
215.000	22.000
216.000	15.000
217.000	26.000
218.000	34.000
219.000	38.000
220.000	41.000
221.000	52.000
222.000	47.000
223.000	56.000
224.000	38.000
225.000	39.000
226.000	40.000
227.000	36.000
228.000	29.000
229.000	30.000
230.000	19.000
231.000	25.000
232.000	21.000
233.000	17.000
234.000	20.000
235.000	17.000
236.000	13.000
237.000	14.000
238.000	23.000
239.000	10.000
240.000	15.000
241.000	9.000
242.000	15.000
243.000	16.000
244.000	15.000
245.000	14.000
246.000	26.000
247.000	25.000
248.000	29.000
249.000	31.000
250.000	43.000
251.000	62.000
252.000	81.000
253.000	119.000
254.000	116.000
255.000	134.000
256.000	174.000
257.000	149.000
258.000	156.000
259.000	162.000
260.000	136.000
261.000	110.000
262.000	98.000
263.000	59.000
264.000	41.000
265.000	44.000
266.000	30.000
267.000	25.000
268.000	27.000
269.000	15.000
270.000	26.000
271.000	30.000
272.000	30.000
273.000	28.000
274.000	24.000
275.000	36.000
276.000	33.000
277.000	36.000
278.000	35.000
279.000	26.000
280.000	24.000
281.000	30.000
282.000	24.000
283.000	34.000
284.000	47.000
285.000	56.000
286.000	54.000
287.000	68.000
288.000	71.000
289.000	75.000
290.000	88.000
291.000	83.000
292.000	69.000
293.000	67.000
294.000	57.000
295.000	42.000
296.000	33.000
297.000	40.000
298.000	30.000
299.000	23.000
300.000	24.000
301.000	19.000
302.000	13.000
303.000	23.000
304.000	12.000
305.000	15.000
306.000	20.000
307.000	25.000
308.000	28.000
309.000	39.000
310.000	26.000
311.000	29.000
312.000	41.000
313.000	46.000
314.000	52.000
315.000	60.000
316.000	76.000
317.000	101.000
318.000	140.000
319.000	150.000
320.000	209.000
321.000	239.000
322.000	332.000
323.000	339.000
324.000	348.000
325.000	382.000
326.000	338.000
327.000	320.000
328.000	303.000
329.000	214.000
330.000	212.000
331.000	141.000
332.000	100.000
333.000	76.000
334.000	57.000
335.000	48.000
336.000	44.000
337.000	33.000
338.000	35.000
339.000	36.000
340.000	53.000
341.000	53.000
342.000	64.000
343.000	74.000
344.000	109.000
345.000	112.000
346.000	203.000
347.000	307.000
348.000	460.000
349.000	712.000
350.000	1123.000
351.000	1771.000
352.000	2569.000
353.000	3838.000
354.000	5270.000
355.000	7236.000
356.000	9741.000
357.000	12232.000
358.000	14308.000
359.000	16338.000
360.000	18147.000
361.000	18847.000
362.000	18532.000
363.000	17507.000
364.000	15911.000
365.000	13584.000
366.000	11362.000
367.000	8794.000
368.000	6759.000
369.000	4970.000
370.000	3294.000
371.000	2131.000
372.000	1343.000
373.000	846.000
374.000	538.000
375.000	354.000
376.000	228.000
377.000	174.000
378.000	147.000
379.000	171.000
380.000	177.000
381.000	251.000
382.000	356.000
383.000	474.000
384.000	623.000
385.000	804.000
386.000	1062.000
387.000	1517.000
388.000	1752.000
389.000	2025.000
390.000	2380.000
391.000	2595.000
392.000	2718.000
393.000	2896.000
394.000	2739.000
395.000	2482.000
396.000	2273.000
397.000	1910.000
398.000	1566.000
399.000	1223.000
400.000	934.000
401.000	653.000
402.000	477.000
403.000	329.000
404.000	199.000
405.000	127.000
406.000	78.000
407.000	46.000
408.000	31.000
409.000	27.000
410.000	17.000
411.000	10.000
412.000	12.000
413.000	10.000
414.000	10.000
415.000	5.000
416.000	7.000
417.000	8.000
418.000	9.000
419.000	6.000
420.000	7.000
421.000	9.000
422.000	11.000
423.000	9.000
424.000	9.000
425.000	14.000
426.000	5.000
427.000	9.000
428.000	16.000
429.000	17.000
430.000	29.000
431.000	36.000
432.000	46.000
433.000	78.000
434.000	84.000
435.000	108.000
436.000	142.000
437.000	146.000
438.000	180.000
439.000	203.000
440.000	242.000
441.000	217.000
442.000	210.000
443.000	181.000
444.000	184.000
445.000	191.000
446.000	125.000
447.000	99.000
448.000	99.000
449.000	78.000
450.000	59.000
451.000	49.000
452.000	40.000
453.000	32.000
454.000	36.000
455.000	34.000
456.000	38.000
457.000	31.000
458.000	38.000
459.000	29.000
460.000	36.000
461.000	16.000
462.000	17.000
463.000	19.000
464.000	14.000
465.000	21.000
466.000	18.000
467.000	16.000
468.000	24.000
469.000	15.000
470.000	19.000
471.000	18.000
472.000	10.000
473.000	31.000
474.000	34.000
475.000	36.000
476.000	33.000
477.000	46.000
478.000	40.000
479.000	50.000
480.000	63.000
481.000	43.000
482.000	42.000
483.000	51.000
484.000	52.000
485.000	49.000
486.000	36.000
487.000	26.000
488.000	27.000
489.000	26.000
490.000	32.000
491.000	14.000
492.000	21.000
493.000	17.000
494.000	15.000
495.000	14.000
496.000	10.000
497.000	16.000
498.000	22.000
499.000	14.000
500.000	15.000
501.000	18.000
502.000	19.000
503.000	24.000
504.000	13.000
505.000	16.000
506.000	22.000
507.000	20.000
508.000	24.000
509.000	25.000
510.000	14.000
511.000	21.000
512.000	22.000
513.000	16.000
514.000	21.000
515.000	30.000
516.000	27.000
517.000	25.000
518.000	27.000
519.000	33.000
520.000	37.000
521.000	35.000
522.000	38.000
523.000	37.000
524.000	42.000
525.000	48.000
526.000	58.000
527.000	44.000
528.000	45.000
529.000	55.000
530.000	52.000
531.000	40.000
532.000	41.000
533.000	36.000
534.000	39.000
535.000	44.000
536.000	40.000
537.000	26.000
538.000	22.000
539.000	29.000
540.000	21.000
541.000	26.000
542.000	17.000
543.000	37.000
544.000	31.000
545.000	22.000
546.000	21.000
547.000	16.000
548.000	28.000
549.000	20.000
550.000	27.000
551.000	23.000
552.000	25.000
553.000	20.000
554.000	24.000
555.000	27.000
556.000	26.000
557.000	28.000
558.000	39.000
559.000	34.000
560.000	36.000
561.000	25.000
562.000	36.000
563.000	35.000
564.000	42.000
565.000	50.000
566.000	55.000
567.000	67.000
568.000	93.000
569.000	80.000
570.000	96.000
571.000	106.000
572.000	107.000
573.000	135.000
574.000	140.000
575.000	136.000
576.000	149.000
577.000	155.000
578.000	122.000
579.000	111.000
580.000	129.000
581.000	114.000
582.000	102.000
583.000	92.000
584.000	76.000
585.000	81.000
586.000	50.000
587.000	40.000
588.000	45.000
589.000	50.000
590.000	32.000
591.000	29.000
592.000	26.000
593.000	32.000
594.000	34.000
595.000	24.000
596.000	37.000
597.000	24.000
598.000	35.000
599.000	38.000
600.000	32.000
601.000	38.000
602.000	40.000
603.000	51.000
604.000	40.000
605.000	43.000
606.000	66.000
607.000	93.000
608.000	98.000
609.000	169.000
610.000	218.000
611.000	303.000
612.000	394.000
613.000	594.000
614.000	777.000
615.000	1101.000
616.000	1431.000
617.000	1823.000
618.000	2293.000
619.000	2850.000
620.000	3285.000
621.000	3844.000
622.000	4367.000
623.000	4665.000
624.000	4924.000
625.000	5021.000
626.000	4974.000
627.000	4822.000
628.000	4459.000
629.000	4102.000
630.000	3594.000
631.000	3074.000
632.000	2541.000
633.000	2102.000
634.000	1687.000
635.000	1322.000
636.000	921.000
637.000	728.000
638.000	508.000
639.000	333.000
640.000	256.000
641.000	195.000
642.000	125.000
643.000	105.000
644.000	80.000
645.000	83.000
646.000	75.000
647.000	63.000
648.000	63.000
649.000	47.000
650.000	59.000
651.000	45.000
652.000	63.000
653.000	49.000
654.000	57.000
655.000	61.000
656.000	64.000
657.000	49.000
658.000	57.000
659.000	74.000
660.000	57.000
661.000	71.000
662.000	73.000
663.000	64.000
664.000	54.000
665.000	58.000
666.000	75.000
667.000	87.000
668.000	70.000
669.000	68.000
670.000	80.000
671.000	80.000
672.000	94.000
673.000	102.000
674.000	98.000
675.000	133.000
676.000	170.000
677.000	193.000
678.000	223.000
679.000	306.000
680.000	333.000
681.000	373.000
682.000	434.000
683.000	518.000
684.000	615.000
685.000	646.000
686.000	769.000
687.000	803.000
688.000	836.000
689.000	839.000
690.000	833.000
691.000	836.000
692.000	778.000
693.000	677.000
694.000	613.000
695.000	567.000
696.000	499.000
697.000	420.000
698.000	343.000
699.000	271.000
700.000	232.000
701.000	172.000
702.000	163.000
703.000	129.000
704.000	100.000
705.000	83.000
706.000	74.000
707.000	63.000
708.000	85.000
709.000	73.000
710.000	66.000
711.000	61.000
712.000	67.000
713.000	58.000
714.000	52.000
715.000	71.000
716.000	66.000
717.000	80.000
718.000	74.000
719.000	78.000
720.000	82.000
721.000	73.000
722.000	88.000
723.000	100.000
724.000	85.000
725.000	78.000
726.000	82.000
727.000	91.000
728.000	92.000
729.000	109.000
730.000	96.000
731.000	101.000
732.000	88.000
733.000	68.000
734.000	83.000
735.000	103.000
736.000	73.000
737.000	63.000
738.000	79.000
739.000	88.000
740.000	89.000
741.000	84.000
742.000	70.000
743.000	54.000
744.000	66.000
745.000	69.000
746.000	63.000
747.000	68.000
748.000	63.000
749.000	71.000
750.000	64.000
751.000	82.000
752.000	76.000
753.000	72.000
754.000	70.000
755.000	62.000
756.000	69.000
757.000	66.000
758.000	67.000
759.000	76.000
760.000	69.000
761.000	69.000
762.000	78.000
763.000	73.000
764.000	62.000
765.000	85.000
766.000	74.000
767.000	84.000
768.000	92.000
769.000	77.000
770.000	88.000
771.000	71.000
772.000	95.000
773.000	74.000
774.000	90.000
775.000	106.000
776.000	96.000
777.000	105.000
778.000	117.000
779.000	91.000
780.000	107.000
781.000	114.000
782.000	105.000
783.000	134.000
784.000	133.000
785.000	154.000
786.000	122.000
787.000	151.000
788.000	131.000
789.000	130.000
790.000	131.000
791.000	133.000
792.000	143.000
793.000	131.000
794.000	134.000
795.000	124.000
796.000	144.000
797.000	140.000
798.000	120.000
799.000	163.000
800.000	136.000
801.000	140.000
802.000	151.000
803.000	138.000
804.000	154.000
805.000	173.000
806.000	169.000
807.000	186.000
808.000	193.000
809.000	184.000
810.000	176.000
811.000	193.000
812.000	248.000
813.000	234.000
814.000	249.000
815.000	277.000
816.000	295.000
817.000	326.000
818.000	345.000
819.000	327.000
820.000	291.000
821.000	289.000
822.000	272.000
823.000	285.000
824.000	257.000
825.000	268.000
826.000	272.000
827.000	226.000
828.000	178.000
829.000	204.000
830.000	174.000
831.000	168.000
832.000	155.000
833.000	147.000
834.000	150.000
835.000	109.000
836.000	120.000
837.000	140.000
838.000	134.000
839.000	112.000
840.000	132.000
841.000	124.000
842.000	133.000
843.000	141.000
844.000	132.000
845.000	138.000
846.000	123.000
847.000	127.000
848.000	120.000
849.000	118.000
850.000	110.000
851.000	111.000
852.000	118.000
853.000	128.000
854.000	96.000
855.000	138.000
856.000	117.000
857.000	136.000
858.000	118.000
859.000	106.000
860.000	114.000
861.000	120.000
862.000	117.000
863.000	115.000
864.000	100.000
865.000	105.000
866.000	113.000
867.000	125.000
868.000	121.000
869.000	120.000
870.000	116.000
871.000	114.000
872.000	91.000
873.000	105.000
874.000	117.000
875.000	124.000
876.000	119.000
877.000	115.000
878.000	107.000
879.000	95.000
880.000	106.000
881.000	105.000
882.000	108.000
883.000	130.000
884.000	128.000
885.000	132.000
886.000	106.000
887.000	109.000
888.000	107.000
889.000	130.000
890.000	137.000
891.000	134.000
892.000	132.000
893.000	120.000
894.000	148.000
895.000	136.000
896.000	127.000
897.000	148.000
898.000	158.000
899.000	139.000
900.000	145.000
901.000	157.000
902.000	153.000
903.000	125.000
904.000	143.000
905.000	156.000
906.000	134.000
907.000	152.000
908.000	164.000
909.000	160.000
910.000	144.000
911.000	146.000
912.000	172.000
913.000	170.000
914.000	186.000
915.000	139.000
916.000	175.000
917.000	179.000
918.000	150.000
919.000	180.000
920.000	186.000
921.000	175.000
922.000	195.000
923.000	184.000
924.000	180.000
925.000	184.000
926.000	173.000
927.000	182.000
928.000	178.000
929.000	178.000
930.000	211.000
931.000	210.000
932.000	186.000
933.000	237.000
934.000	209.000
935.000	215.000
936.000	228.000
937.000	234.000
938.000	255.000
939.000	224.000
940.000	254.000
941.000	249.000
942.000	276.000
943.000	249.000
944.000	256.000
945.000	271.000
946.000	261.000
947.000	253.000
948.000	266.000
949.000	233.000
950.000	203.000
951.000	237.000
952.000	221.000
953.000	212.000
954.000	208.000
955.000	186.000
956.000	163.000
957.000	167.000
958.000	171.000
959.000	177.000
960.000	178.000
961.000	178.000
962.000	174.000
963.000	171.000
964.000	181.000
965.000	183.000
966.000	180.000
967.000	185.000
968.000	163.000
969.000	152.000
970.000	214.000
971.000	197.000
972.000	180.000
973.000	198.000
974.000	158.000
975.000	173.000
976.000	157.000
977.000	169.000
978.000	167.000
979.000	163.000
980.000	159.000
981.000	163.000
982.000	165.000
983.000	159.000
984.000	155.000
985.000	147.000
986.000	144.000
987.000	165.000
988.000	155.000
989.000	136.000
990.000	159.000
991.000	124.000
992.000	151.000
993.000	159.000
994.000	137.000
995.000	152.000
996.000	139.000
997.000	122.000
998.000	118.000
999.000	166.000
1000.000	135.000
1001.000	147.000
1002.000	124.000
1003.000	127.000
1004.000	135.000
1005.000	152.000
1006.000	127.000
1007.000	141.000
1008.000	130.000
1009.000	141.000
1010.000	124.000
1011.000	141.000
1012.000	143.000
1013.000	132.000
1014.000	136.000
1015.000	142.000
1016.000	123.000
1017.000	122.000
1018.000	148.000
1019.000	129.000
1020.000	130.000
1021.000	108.000
1022.000	152.000
1023.000	136.000
1024.000	130.000
1025.000	147.000
1026.000	176.000
1027.000	142.000
1028.000	129.000
1029.000	146.000
1030.000	131.000
1031.000	171.000
1032.000	144.000
1033.000	152.000
1034.000	128.000
1035.000	140.000
1036.000	131.000
1037.000	146.000
1038.000	142.000
1039.000	136.000
1040.000	173.000
1041.000	153.000
1042.000	127.000
1043.000	157.000
1044.000	142.000
1045.000	160.000
1046.000	148.000
1047.000	153.000
1048.000	176.000
1049.000	157.000
1050.000	143.000
1051.000	140.000
1052.000	163.000
1053.000	165.000
1054.000	151.000
1055.000	140.000
1056.000	148.000
1057.000	166.000
1058.000	185.000
1059.000	135.000
1060.000	162.000
1061.000	139.000
1062.000	162.000
1063.000	159.000
1064.000	148.000
1065.000	151.000
1066.000	160.000
1067.000	157.000
1068.000	153.000
1069.000	160.000
1070.000	162.000
1071.000	168.000
1072.000	160.000
1073.000	158.000
1074.000	163.000
1075.000	171.000
1076.000	138.000
1077.000	156.000
1078.000	173.000
1079.000	134.000
1080.000	169.000
1081.000	150.000
1082.000	157.000
1083.000	175.000
1084.000	179.000
1085.000	160.000
1086.000	168.000
1087.000	175.000
1088.000	158.000
1089.000	167.000
1090.000	162.000
1091.000	164.000
1092.000	180.000
1093.000	163.000
1094.000	169.000
1095.000	181.000
1096.000	166.000
1097.000	170.000
1098.000	169.000
1099.000	169.000
1100.000	183.000
1101.000	186.000
1102.000	189.000
1103.000	164.000
1104.000	170.000
1105.000	146.000
1106.000	161.000
1107.000	173.000
1108.000	171.000
1109.000	180.000
1110.000	166.000
1111.000	166.000
1112.000	165.000
1113.000	175.000
1114.000	149.000
1115.000	189.000
1116.000	196.000
1117.000	160.000
1118.000	147.000
1119.000	166.000
1120.000	162.000
1121.000	153.000
1122.000	171.000
1123.000	153.000
1124.000	163.000
1125.000	161.000
1126.000	171.000
1127.000	147.000
1128.000	171.000
1129.000	151.000
1130.000	148.000
1131.000	155.000
1132.000	156.000
1133.000	175.000
1134.000	171.000
1135.000	154.000
1136.000	173.000
1137.000	160.000
1138.000	182.000
1139.000	175.000
1140.000	176.000
1141.000	188.000
1142.000	167.000
1143.000	157.000
1144.000	182.000
1145.000	174.000
1146.000	183.000
1147.000	154.000
1148.000	154.000
1149.000	171.000
1150.000	178.000
1151.000	166.000
1152.000	172.000
1153.000	200.000
1154.000	160.000
1155.000	167.000
1156.000	172.000
