Date:	22-Sep-20		Time:	11:44 PM		Version no:	0.00		Project name:	55		Sample name:	222		Section name:	section		Position	0.000000	mm	E0	0.000000	keV	E1	1.000000	keV/channel	sample surface	2.000000	cm	Tube anode:	Mo		Tube voltage:	30	kV	Tube current:	30	mA	gain	15		std. database			resultfile	result		matrix element	11		sample thickness	1.000000		air passage	0.560000	cm	comments	not in position		peaking_time	0.300000	m-sec	trigger_threshold	40.000000	V	mca_bin_width	2.000000	no:	number_mca_channels	2048.000000	no:	gap_time	2048.000000	m-sec	trigger_peaking_time	2048.000000	m-sec	GAINDAC	400		HIGHGAIN	400		TAURC	400		RCTAU	400		RCTAUFRAC	400		livetime	13.460029	seconds	runtime	15.000315	seconds	input_count_rate	48083.921460	cps	output_count_rate	43146.493924	cps	triggers	709732	seconds	events_in_run	631780	seconds	channel	content		1.000	0.000
2.000	0.000
3.000	0.000
4.000	0.000
5.000	0.000
6.000	0.000
7.000	0.000
8.000	0.000
9.000	0.000
10.000	0.000
11.000	0.000
12.000	0.000
13.000	0.000
14.000	0.000
15.000	0.000
16.000	0.000
17.000	0.000
18.000	0.000
19.000	0.000
20.000	0.000
21.000	0.000
22.000	0.000
23.000	0.000
24.000	0.000
25.000	0.000
26.000	0.000
27.000	0.000
28.000	0.000
29.000	0.000
30.000	0.000
31.000	34.000
32.000	37.000
33.000	39.000
34.000	26.000
35.000	33.000
36.000	33.000
37.000	41.000
38.000	33.000
39.000	26.000
40.000	25.000
41.000	26.000
42.000	35.000
43.000	31.000
44.000	36.000
45.000	32.000
46.000	44.000
47.000	48.000
48.000	54.000
49.000	69.000
50.000	124.000
51.000	123.000
52.000	201.000
53.000	269.000
54.000	361.000
55.000	484.000
56.000	624.000
57.000	851.000
58.000	1317.000
59.000	1766.000
60.000	2296.000
61.000	2596.000
62.000	2912.000
63.000	2970.000
64.000	2979.000
65.000	2908.000
66.000	2719.000
67.000	2724.000
68.000	2540.000
69.000	2526.000
70.000	2644.000
71.000	2530.000
72.000	2466.000
73.000	2308.000
74.000	2465.000
75.000	2394.000
76.000	2380.000
77.000	2389.000
78.000	2352.000
79.000	2309.000
80.000	2344.000
81.000	2394.000
82.000	2461.000
83.000	2444.000
84.000	2397.000
85.000	2586.000
86.000	2570.000
87.000	2376.000
88.000	2446.000
89.000	2381.000
90.000	2304.000
91.000	2238.000
92.000	2124.000
93.000	2143.000
94.000	2044.000
95.000	2093.000
96.000	2134.000
97.000	2075.000
98.000	2023.000
99.000	1975.000
100.000	1988.000
101.000	1983.000
102.000	2011.000
103.000	1941.000
104.000	1904.000
105.000	1965.000
106.000	1871.000
107.000	1897.000
108.000	1889.000
109.000	1878.000
110.000	1753.000
111.000	1782.000
112.000	1846.000
113.000	1822.000
114.000	1771.000
115.000	1795.000
116.000	1786.000
117.000	1726.000
118.000	1820.000
119.000	1784.000
120.000	1724.000
121.000	1731.000
122.000	1637.000
123.000	1634.000
124.000	1623.000
125.000	1617.000
126.000	1642.000
127.000	1590.000
128.000	1526.000
129.000	1574.000
130.000	1500.000
131.000	1489.000
132.000	1526.000
133.000	1455.000
134.000	1472.000
135.000	1493.000
136.000	1524.000
137.000	1540.000
138.000	1561.000
139.000	1699.000
140.000	1712.000
141.000	1857.000
142.000	2087.000
143.000	2317.000
144.000	2439.000
145.000	2505.000
146.000	2617.000
147.000	2540.000
148.000	2409.000
149.000	2230.000
150.000	2081.000
151.000	1970.000
152.000	1910.000
153.000	1714.000
154.000	1716.000
155.000	1639.000
156.000	1569.000
157.000	1458.000
158.000	1411.000
159.000	1345.000
160.000	1256.000
161.000	1369.000
162.000	1461.000
163.000	1641.000
164.000	2027.000
165.000	2470.000
166.000	3012.000
167.000	3885.000
168.000	4581.000
169.000	5111.000
170.000	5661.000
171.000	5803.000
172.000	5381.000
173.000	4961.000
174.000	4414.000
175.000	3874.000
176.000	3273.000
177.000	2982.000
178.000	2804.000
179.000	2838.000
180.000	3033.000
181.000	3337.000
182.000	3972.000
183.000	4997.000
184.000	6622.000
185.000	8583.000
186.000	11393.000
187.000	14790.000
188.000	17896.000
189.000	20632.000
190.000	22602.000
191.000	23385.000
192.000	22759.000
193.000	20156.000
194.000	17357.000
195.000	14067.000
196.000	10548.000
197.000	7823.000
198.000	5633.000
199.000	3820.000
200.000	2859.000
201.000	2275.000
202.000	1814.000
203.000	1638.000
204.000	1592.000
205.000	1551.000
206.000	1480.000
207.000	1569.000
208.000	1525.000
209.000	1623.000
210.000	1614.000
211.000	1594.000
212.000	1770.000
213.000	1811.000
214.000	1880.000
215.000	2067.000
216.000	2378.000
217.000	2717.000
218.000	3040.000
219.000	3373.000
220.000	3894.000
221.000	4319.000
222.000	4606.000
223.000	4544.000
224.000	4522.000
225.000	4278.000
226.000	4017.000
227.000	3488.000
228.000	3073.000
229.000	2643.000
230.000	2234.000
231.000	2021.000
232.000	1679.000
233.000	1540.000
234.000	1398.000
235.000	1385.000
236.000	1335.000
237.000	1320.000
238.000	1314.000
239.000	1328.000
240.000	1318.000
241.000	1352.000
242.000	1334.000
243.000	1373.000
244.000	1447.000
245.000	1576.000
246.000	1843.000
247.000	2212.000
248.000	2803.000
249.000	3647.000
250.000	4780.000
251.000	6445.000
252.000	8366.000
253.000	10454.000
254.000	12783.000
255.000	14724.000
256.000	15857.000
257.000	16428.000
258.000	16297.000
259.000	14654.000
260.000	12975.000
261.000	10835.000
262.000	8660.000
263.000	6698.000
264.000	4862.000
265.000	3794.000
266.000	2915.000
267.000	2427.000
268.000	2190.000
269.000	2142.000
270.000	2322.000
271.000	2427.000
272.000	2608.000
273.000	2917.000
274.000	2983.000
275.000	3134.000
276.000	3207.000
277.000	3070.000
278.000	3089.000
279.000	2961.000
280.000	2961.000
281.000	2902.000
282.000	3130.000
283.000	3417.000
284.000	3867.000
285.000	4566.000
286.000	5270.000
287.000	6093.000
288.000	6615.000
289.000	6958.000
290.000	7149.000
291.000	6961.000
292.000	6315.000
293.000	5784.000
294.000	5110.000
295.000	4300.000
296.000	3650.000
297.000	3023.000
298.000	2737.000
299.000	2376.000
300.000	2221.000
301.000	2103.000
302.000	2087.000
303.000	2045.000
304.000	2124.000
305.000	2296.000
306.000	2300.000
307.000	2534.000
308.000	2609.000
309.000	2860.000
310.000	2897.000
311.000	3168.000
312.000	3586.000
313.000	3964.000
314.000	4585.000
315.000	5299.000
316.000	6746.000
317.000	8337.000
318.000	10686.000
319.000	13391.000
320.000	16290.000
321.000	19279.000
322.000	21726.000
323.000	24296.000
324.000	25071.000
325.000	25125.000
326.000	23935.000
327.000	22064.000
328.000	19140.000
329.000	15987.000
330.000	12771.000
331.000	10224.000
332.000	7751.000
333.000	5994.000
334.000	4556.000
335.000	3825.000
336.000	3318.000
337.000	3206.000
338.000	3464.000
339.000	3676.000
340.000	4249.000
341.000	4895.000
342.000	6093.000
343.000	7568.000
344.000	9983.000
345.000	13569.000
346.000	19464.000
347.000	28723.000
348.000	44848.000
349.000	70046.000
350.000	110948.000
351.000	172052.000
352.000	262554.000
353.000	386086.000
354.000	548006.000
355.000	749214.000
356.000	982493.000
357.000	1230516.000
358.000	1472198.000
359.000	1681495.000
360.000	1836206.000
361.000	1912997.000
362.000	1897833.000
363.000	1800727.000
364.000	1630029.000
365.000	1404460.000
366.000	1157965.000
367.000	911124.000
368.000	684903.000
369.000	490672.000
370.000	337911.000
371.000	222722.000
372.000	141026.000
373.000	87090.000
374.000	53642.000
375.000	33183.000
376.000	22518.000
377.000	17452.000
378.000	15723.000
379.000	16775.000
380.000	20497.000
381.000	25938.000
382.000	35088.000
383.000	47261.000
384.000	64400.000
385.000	86164.000
386.000	113325.000
387.000	144498.000
388.000	177237.000
389.000	211762.000
390.000	242217.000
391.000	266914.000
392.000	280772.000
393.000	284651.000
394.000	276111.000
395.000	258161.000
396.000	228622.000
397.000	195335.000
398.000	159307.000
399.000	125103.000
400.000	93807.000
401.000	67338.000
402.000	46705.000
403.000	31416.000
404.000	19930.000
405.000	12587.000
406.000	7642.000
407.000	4813.000
408.000	2889.000
409.000	1942.000
410.000	1406.000
411.000	1126.000
412.000	953.000
413.000	848.000
414.000	800.000
415.000	787.000
416.000	750.000
417.000	799.000
418.000	783.000
419.000	742.000
420.000	754.000
421.000	774.000
422.000	824.000
423.000	803.000
424.000	880.000
425.000	920.000
426.000	1025.000
427.000	1339.000
428.000	1610.000
429.000	2070.000
430.000	2788.000
431.000	3773.000
432.000	4952.000
433.000	6744.000
434.000	8823.000
435.000	11102.000
436.000	13218.000
437.000	15902.000
438.000	18325.000
439.000	20164.000
440.000	21325.000
441.000	21713.000
442.000	21275.000
443.000	20107.000
444.000	18263.000
445.000	16230.000
446.000	14060.000
447.000	11561.000
448.000	9258.000
449.000	7808.000
450.000	5998.000
451.000	4988.000
452.000	4236.000
453.000	3779.000
454.000	3423.000
455.000	3126.000
456.000	3015.000
457.000	2782.000
458.000	2583.000
459.000	2344.000
460.000	2216.000
461.000	2014.000
462.000	1835.000
463.000	1755.000
464.000	1659.000
465.000	1539.000
466.000	1538.000
467.000	1584.000
468.000	1553.000
469.000	1670.000
470.000	1783.000
471.000	1980.000
472.000	2168.000
473.000	2377.000
474.000	2529.000
475.000	2816.000
476.000	3254.000
477.000	3602.000
478.000	3999.000
479.000	4355.000
480.000	4638.000
481.000	4914.000
482.000	4942.000
483.000	4859.000
484.000	4942.000
485.000	4633.000
486.000	4346.000
487.000	3870.000
488.000	3518.000
489.000	3191.000
490.000	2610.000
491.000	2351.000
492.000	2080.000
493.000	1866.000
494.000	1652.000
495.000	1530.000
496.000	1438.000
497.000	1438.000
498.000	1398.000
499.000	1454.000
500.000	1551.000
501.000	1500.000
502.000	1545.000
503.000	1563.000
504.000	1618.000
505.000	1615.000
506.000	1679.000
507.000	1662.000
508.000	1696.000
509.000	1781.000
510.000	1809.000
511.000	1952.000
512.000	1992.000
513.000	2063.000
514.000	2192.000
515.000	2263.000
516.000	2283.000
517.000	2286.000
518.000	2457.000
519.000	2642.000
520.000	2747.000
521.000	2836.000
522.000	3123.000
523.000	3270.000
524.000	3537.000
525.000	3734.000
526.000	4004.000
527.000	4176.000
528.000	4300.000
529.000	4312.000
530.000	4318.000
531.000	4159.000
532.000	3921.000
533.000	3637.000
534.000	3612.000
535.000	3231.000
536.000	2869.000
537.000	2678.000
538.000	2502.000
539.000	2294.000
540.000	2237.000
541.000	2194.000
542.000	2069.000
543.000	2067.000
544.000	2045.000
545.000	2077.000
546.000	2032.000
547.000	2086.000
548.000	2088.000
549.000	1997.000
550.000	2091.000
551.000	2135.000
552.000	2176.000
553.000	2220.000
554.000	2240.000
555.000	2397.000
556.000	2430.000
557.000	2524.000
558.000	2607.000
559.000	2628.000
560.000	2741.000
561.000	2884.000
562.000	3022.000
563.000	3299.000
564.000	3554.000
565.000	3823.000
566.000	4242.000
567.000	4789.000
568.000	5605.000
569.000	6318.000
570.000	6946.000
571.000	7827.000
572.000	8446.000
573.000	9237.000
574.000	9962.000
575.000	10084.000
576.000	10358.000
577.000	10441.000
578.000	10179.000
579.000	9494.000
580.000	8774.000
581.000	7979.000
582.000	7158.000
583.000	6427.000
584.000	5622.000
585.000	4957.000
586.000	4386.000
587.000	3935.000
588.000	3698.000
589.000	3257.000
590.000	3073.000
591.000	2963.000
592.000	2878.000
593.000	2783.000
594.000	2845.000
595.000	2987.000
596.000	2963.000
597.000	2966.000
598.000	3083.000
599.000	3128.000
600.000	3224.000
601.000	3435.000
602.000	3691.000
603.000	4005.000
604.000	4203.000
605.000	4937.000
606.000	5889.000
607.000	7328.000
608.000	9853.000
609.000	12925.000
610.000	18249.000
611.000	25721.000
612.000	36278.000
613.000	50501.000
614.000	69666.000
615.000	93892.000
616.000	124238.000
617.000	161120.000
618.000	200951.000
619.000	245577.000
620.000	290916.000
621.000	335759.000
622.000	376717.000
623.000	408718.000
624.000	431184.000
625.000	441845.000
626.000	439180.000
627.000	423810.000
628.000	397898.000
629.000	361880.000
630.000	319369.000
631.000	274687.000
632.000	228313.000
633.000	185726.000
634.000	146667.000
635.000	112122.000
636.000	84531.000
637.000	61924.000
638.000	44780.000
639.000	32332.000
640.000	23306.000
641.000	17005.000
642.000	12688.000
643.000	10155.000
644.000	7930.000
645.000	6860.000
646.000	6223.000
647.000	5764.000
648.000	5516.000
649.000	5352.000
650.000	5215.000
651.000	5157.000
652.000	5258.000
653.000	5269.000
654.000	5178.000
655.000	5128.000
656.000	5239.000
657.000	5193.000
658.000	5249.000
659.000	5307.000
660.000	5598.000
661.000	5525.000
662.000	5575.000
663.000	5750.000
664.000	5955.000
665.000	6069.000
666.000	6277.000
667.000	6538.000
668.000	6739.000
669.000	7005.000
670.000	7342.000
671.000	7846.000
672.000	8693.000
673.000	9526.000
674.000	10721.000
675.000	12561.000
676.000	14430.000
677.000	17100.000
678.000	20622.000
679.000	24521.000
680.000	29661.000
681.000	35523.000
682.000	41711.000
683.000	48206.000
684.000	55004.000
685.000	61024.000
686.000	66854.000
687.000	70712.000
688.000	73918.000
689.000	75002.000
690.000	73927.000
691.000	71651.000
692.000	67693.000
693.000	62583.000
694.000	56094.000
695.000	49330.000
696.000	42733.000
697.000	35667.000
698.000	29571.000
699.000	24307.000
700.000	19888.000
701.000	16139.000
702.000	13012.000
703.000	10880.000
704.000	9126.000
705.000	7829.000
706.000	7037.000
707.000	6496.000
708.000	5985.000
709.000	5827.000
710.000	5771.000
711.000	5715.000
712.000	5852.000
713.000	5801.000
714.000	6068.000
715.000	6466.000
716.000	6440.000
717.000	6826.000
718.000	7070.000
719.000	7392.000
720.000	7521.000
721.000	7705.000
722.000	8172.000
723.000	8513.000
724.000	8476.000
725.000	8611.000
726.000	8827.000
727.000	8919.000
728.000	8751.000
729.000	8803.000
730.000	8795.000
731.000	8660.000
732.000	8287.000
733.000	8134.000
734.000	8207.000
735.000	7800.000
736.000	7635.000
737.000	7267.000
738.000	7180.000
739.000	7016.000
740.000	6702.000
741.000	6728.000
742.000	6641.000
743.000	6553.000
744.000	6507.000
745.000	6556.000
746.000	6561.000
747.000	6344.000
748.000	6599.000
749.000	6469.000
750.000	6556.000
751.000	6758.000
752.000	6631.000
753.000	6576.000
754.000	6658.000
755.000	6620.000
756.000	6740.000
757.000	6620.000
758.000	6555.000
759.000	6754.000
760.000	6538.000
761.000	6669.000
762.000	6797.000
763.000	6850.000
764.000	6806.000
765.000	6806.000
766.000	6885.000
767.000	7048.000
768.000	7150.000
769.000	7125.000
770.000	7394.000
771.000	7528.000
772.000	7869.000
773.000	7759.000
774.000	8269.000
775.000	8353.000
776.000	8747.000
777.000	9133.000
778.000	9471.000
779.000	9684.000
780.000	10147.000
781.000	10469.000
782.000	11004.000
783.000	11353.000
784.000	11542.000
785.000	11869.000
786.000	12173.000
787.000	12623.000
788.000	12597.000
789.000	12697.000
790.000	12693.000
791.000	13143.000
792.000	13187.000
793.000	13220.000
794.000	13553.000
795.000	13139.000
796.000	13252.000
797.000	13548.000
798.000	13458.000
799.000	13577.000
800.000	13554.000
801.000	13649.000
802.000	13619.000
803.000	13953.000
804.000	14281.000
805.000	14600.000
806.000	15131.000
807.000	15562.000
808.000	16253.000
809.000	17393.000
810.000	17982.000
811.000	19531.000
812.000	20711.000
813.000	22340.000
814.000	23726.000
815.000	24660.000
816.000	25966.000
817.000	26900.000
818.000	27507.000
819.000	27854.000
820.000	27963.000
821.000	27699.000
822.000	26955.000
823.000	25819.000
824.000	24505.000
825.000	22930.000
826.000	21372.000
827.000	19696.000
828.000	18077.000
829.000	16895.000
830.000	15550.000
831.000	14676.000
832.000	13753.000
833.000	12959.000
834.000	12588.000
835.000	12321.000
836.000	12183.000
837.000	12048.000
838.000	12118.000
839.000	12050.000
840.000	12095.000
841.000	12244.000
842.000	12252.000
843.000	12059.000
844.000	12388.000
845.000	12077.000
846.000	12022.000
847.000	12012.000
848.000	11997.000
849.000	11686.000
850.000	11670.000
851.000	11460.000
852.000	11543.000
853.000	11209.000
854.000	11317.000
855.000	11148.000
856.000	10902.000
857.000	11273.000
858.000	10875.000
859.000	11096.000
860.000	10818.000
861.000	10921.000
862.000	11003.000
863.000	11038.000
864.000	11058.000
865.000	11321.000
866.000	11076.000
867.000	11220.000
868.000	11133.000
869.000	11266.000
870.000	11009.000
871.000	11081.000
872.000	11221.000
873.000	11103.000
874.000	11211.000
875.000	11148.000
876.000	11086.000
877.000	11067.000
878.000	11110.000
879.000	11080.000
880.000	11186.000
881.000	11074.000
882.000	11003.000
883.000	10988.000
884.000	11010.000
885.000	11297.000
886.000	11172.000
887.000	11277.000
888.000	11437.000
889.000	11555.000
890.000	11584.000
891.000	11567.000
892.000	11832.000
893.000	12004.000
894.000	12179.000
895.000	12447.000
896.000	12403.000
897.000	12693.000
898.000	12969.000
899.000	13205.000
900.000	13306.000
901.000	13752.000
902.000	13801.000
903.000	13865.000
904.000	14283.000
905.000	14509.000
906.000	14596.000
907.000	15151.000
908.000	15128.000
909.000	15336.000
910.000	15563.000
911.000	15456.000
912.000	15675.000
913.000	15859.000
914.000	15884.000
915.000	16108.000
916.000	16337.000
917.000	16234.000
918.000	16486.000
919.000	16439.000
920.000	16757.000
921.000	16541.000
922.000	16792.000
923.000	16887.000
924.000	17272.000
925.000	17532.000
926.000	17476.000
927.000	17934.000
928.000	18126.000
929.000	18366.000
930.000	18639.000
931.000	18936.000
932.000	19399.000
933.000	19968.000
934.000	20312.000
935.000	20888.000
936.000	21508.000
937.000	22199.000
938.000	22790.000
939.000	23631.000
940.000	24211.000
941.000	24514.000
942.000	24786.000
943.000	25003.000
944.000	24990.000
945.000	24943.000
946.000	24508.000
947.000	24360.000
948.000	23407.000
949.000	22695.000
950.000	22056.000
951.000	21361.000
952.000	20393.000
953.000	19920.000
954.000	19037.000
955.000	18748.000
956.000	17963.000
957.000	17307.000
958.000	17450.000
959.000	17201.000
960.000	16806.000
961.000	16649.000
962.000	16771.000
963.000	16817.000
964.000	16955.000
965.000	17208.000
966.000	17133.000
967.000	17336.000
968.000	17471.000
969.000	17568.000
970.000	17974.000
971.000	17805.000
972.000	17836.000
973.000	17560.000
974.000	17450.000
975.000	17335.000
976.000	17161.000
977.000	16706.000
978.000	16340.000
979.000	16291.000
980.000	15784.000
981.000	15586.000
982.000	15260.000
983.000	15106.000
984.000	14910.000
985.000	14903.000
986.000	14368.000
987.000	14262.000
988.000	14129.000
989.000	13866.000
990.000	13832.000
991.000	13742.000
992.000	13669.000
993.000	13339.000
994.000	13512.000
995.000	13390.000
996.000	13284.000
997.000	13102.000
998.000	13137.000
999.000	12819.000
1000.000	12979.000
1001.000	12708.000
1002.000	12830.000
1003.000	12876.000
1004.000	12820.000
1005.000	12906.000
1006.000	12600.000
1007.000	12689.000
1008.000	12910.000
1009.000	12874.000
1010.000	12781.000
1011.000	12775.000
1012.000	12787.000
1013.000	12944.000
1014.000	12831.000
1015.000	13044.000
1016.000	12946.000
1017.000	13093.000
1018.000	12883.000
1019.000	13180.000
1020.000	13380.000
1021.000	13228.000
1022.000	13258.000
1023.000	13354.000
1024.000	13373.000
1025.000	13508.000
1026.000	13487.000
1027.000	13799.000
1028.000	13700.000
1029.000	13794.000
1030.000	13776.000
1031.000	13782.000
1032.000	13640.000
1033.000	13742.000
1034.000	13844.000
1035.000	13867.000
1036.000	13932.000
1037.000	13872.000
1038.000	14111.000
1039.000	13852.000
1040.000	13917.000
1041.000	14169.000
1042.000	13966.000
1043.000	14288.000
1044.000	14137.000
1045.000	13955.000
