Date:	24-Sep-20		Time:	12:13 AM		Version no:	0.00		Project name:	55		Sample name:	222		Section name:	section		Position	0.000000	mm	E0	0.000000	keV	E1	1.000000	keV/channel	sample surface	2.000000	cm	Tube anode:	Mo		Tube voltage:	30	kV	Tube current:	30	mA	gain	15		std. database			resultfile	result		matrix element	11		sample thickness	1.000000		air passage	0.560000	cm	comments	not in position		peaking_time	0.300000	m-sec	trigger_threshold	40.000000	V	mca_bin_width	2.000000	no:	number_mca_channels	2048.000000	no:	gap_time	2048.000000	m-sec	trigger_peaking_time	2048.000000	m-sec	GAINDAC	400		HIGHGAIN	400		TAURC	400		RCTAU	400		RCTAUFRAC	400		livetime	13.459120	seconds	runtime	15.000068	seconds	input_count_rate	47835.074842	cps	output_count_rate	42921.003994	cps	triggers	706206	seconds	events_in_run	629183	seconds	channel	content		1.000	0.000
2.000	0.000
3.000	0.000
4.000	0.000
5.000	0.000
6.000	0.000
7.000	0.000
8.000	0.000
9.000	0.000
10.000	0.000
11.000	0.000
12.000	0.000
13.000	0.000
14.000	0.000
15.000	0.000
16.000	0.000
17.000	0.000
18.000	0.000
19.000	0.000
20.000	0.000
21.000	0.000
22.000	0.000
23.000	0.000
24.000	0.000
25.000	0.000
26.000	0.000
27.000	0.000
28.000	0.000
29.000	0.000
30.000	0.000
31.000	55.000
32.000	56.000
33.000	52.000
34.000	46.000
35.000	58.000
36.000	59.000
37.000	44.000
38.000	38.000
39.000	46.000
40.000	56.000
41.000	48.000
42.000	50.000
43.000	57.000
44.000	40.000
45.000	54.000
46.000	61.000
47.000	77.000
48.000	82.000
49.000	122.000
50.000	146.000
51.000	231.000
52.000	314.000
53.000	423.000
54.000	560.000
55.000	747.000
56.000	997.000
57.000	1379.000
58.000	2023.000
59.000	2774.000
60.000	3506.000
61.000	4082.000
62.000	4540.000
63.000	4677.000
64.000	4585.000
65.000	4505.000
66.000	4282.000
67.000	4208.000
68.000	4101.000
69.000	4034.000
70.000	3982.000
71.000	3823.000
72.000	3924.000
73.000	3879.000
74.000	3732.000
75.000	3679.000
76.000	3940.000
77.000	3681.000
78.000	3698.000
79.000	3776.000
80.000	3783.000
81.000	3877.000
82.000	3822.000
83.000	3824.000
84.000	3910.000
85.000	3944.000
86.000	3851.000
87.000	3863.000
88.000	3812.000
89.000	3677.000
90.000	3587.000
91.000	3649.000
92.000	3487.000
93.000	3424.000
94.000	3365.000
95.000	3359.000
96.000	3272.000
97.000	3204.000
98.000	3279.000
99.000	3179.000
100.000	3105.000
101.000	3319.000
102.000	3109.000
103.000	3100.000
104.000	3069.000
105.000	2988.000
106.000	2992.000
107.000	3082.000
108.000	2932.000
109.000	2827.000
110.000	2856.000
111.000	2836.000
112.000	2750.000
113.000	2735.000
114.000	2699.000
115.000	2672.000
116.000	2652.000
117.000	2768.000
118.000	2716.000
119.000	2719.000
120.000	2720.000
121.000	2631.000
122.000	2597.000
123.000	2563.000
124.000	2559.000
125.000	2461.000
126.000	2370.000
127.000	2387.000
128.000	2330.000
129.000	2306.000
130.000	2274.000
131.000	2314.000
132.000	2294.000
133.000	2200.000
134.000	2115.000
135.000	2284.000
136.000	2284.000
137.000	2208.000
138.000	2433.000
139.000	2613.000
140.000	2690.000
141.000	3059.000
142.000	3374.000
143.000	3875.000
144.000	4046.000
145.000	4396.000
146.000	4372.000
147.000	4429.000
148.000	4195.000
149.000	3845.000
150.000	3607.000
151.000	3444.000
152.000	3323.000
153.000	3206.000
154.000	3060.000
155.000	3122.000
156.000	2894.000
157.000	2616.000
158.000	2498.000
159.000	2419.000
160.000	2272.000
161.000	2365.000
162.000	2650.000
163.000	3279.000
164.000	4467.000
165.000	5895.000
166.000	7825.000
167.000	10114.000
168.000	12298.000
169.000	14481.000
170.000	15445.000
171.000	15829.000
172.000	14965.000
173.000	13420.000
174.000	11275.000
175.000	9203.000
176.000	7320.000
177.000	5901.000
178.000	4879.000
179.000	4317.000
180.000	4165.000
181.000	4300.000
182.000	4456.000
183.000	5019.000
184.000	6000.000
185.000	7387.000
186.000	9328.000
187.000	11523.000
188.000	13844.000
189.000	16089.000
190.000	17519.000
191.000	17699.000
192.000	17094.000
193.000	15706.000
194.000	13760.000
195.000	11117.000
196.000	8786.000
197.000	6486.000
198.000	4944.000
199.000	3833.000
200.000	2906.000
201.000	2472.000
202.000	2127.000
203.000	2072.000
204.000	1960.000
205.000	1931.000
206.000	1903.000
207.000	1956.000
208.000	1848.000
209.000	1963.000
210.000	1926.000
211.000	1954.000
212.000	2002.000
213.000	2077.000
214.000	2119.000
215.000	2320.000
216.000	2509.000
217.000	2784.000
218.000	3043.000
219.000	3284.000
220.000	3529.000
221.000	4032.000
222.000	4316.000
223.000	4300.000
224.000	4469.000
225.000	4084.000
226.000	3909.000
227.000	3643.000
228.000	3312.000
229.000	2862.000
230.000	2599.000
231.000	2246.000
232.000	2101.000
233.000	1857.000
234.000	1779.000
235.000	1729.000
236.000	1692.000
237.000	1605.000
238.000	1620.000
239.000	1606.000
240.000	1677.000
241.000	1759.000
242.000	1692.000
243.000	1836.000
244.000	1875.000
245.000	2123.000
246.000	2417.000
247.000	2899.000
248.000	3792.000
249.000	5233.000
250.000	6999.000
251.000	9491.000
252.000	12706.000
253.000	16067.000
254.000	19387.000
255.000	22040.000
256.000	24413.000
257.000	24848.000
258.000	24357.000
259.000	22773.000
260.000	19618.000
261.000	16272.000
262.000	13089.000
263.000	9890.000
264.000	7356.000
265.000	5685.000
266.000	4435.000
267.000	3674.000
268.000	3419.000
269.000	3327.000
270.000	3404.000
271.000	3692.000
272.000	4091.000
273.000	4261.000
274.000	4470.000
275.000	4539.000
276.000	4594.000
277.000	4453.000
278.000	4277.000
279.000	4042.000
280.000	4124.000
281.000	4137.000
282.000	4461.000
283.000	5104.000
284.000	5863.000
285.000	6932.000
286.000	8341.000
287.000	9369.000
288.000	10390.000
289.000	11119.000
290.000	11366.000
291.000	10927.000
292.000	10087.000
293.000	8953.000
294.000	7703.000
295.000	6446.000
296.000	5212.000
297.000	4176.000
298.000	3476.000
299.000	2874.000
300.000	2570.000
301.000	2311.000
302.000	2294.000
303.000	2364.000
304.000	2418.000
305.000	2497.000
306.000	2556.000
307.000	2920.000
308.000	3103.000
309.000	3489.000
310.000	3861.000
311.000	4423.000
312.000	5307.000
313.000	6400.000
314.000	8409.000
315.000	11415.000
316.000	15965.000
317.000	21652.000
318.000	29254.000
319.000	38343.000
320.000	48591.000
321.000	58577.000
322.000	67940.000
323.000	74792.000
324.000	79514.000
325.000	79803.000
326.000	76282.000
327.000	69253.000
328.000	59684.000
329.000	49509.000
330.000	39116.000
331.000	29712.000
332.000	21554.000
333.000	15207.000
334.000	10578.000
335.000	7490.000
336.000	5403.000
337.000	4504.000
338.000	4129.000
339.000	4066.000
340.000	4555.000
341.000	5267.000
342.000	6487.000
343.000	7866.000
344.000	10354.000
345.000	13576.000
346.000	18978.000
347.000	27345.000
348.000	39746.000
349.000	59234.000
350.000	90038.000
351.000	134515.000
352.000	199456.000
353.000	289361.000
354.000	405678.000
355.000	550754.000
356.000	719770.000
357.000	896512.000
358.000	1071160.000
359.000	1223233.000
360.000	1334644.000
361.000	1386908.000
362.000	1375813.000
363.000	1305542.000
364.000	1180511.000
365.000	1017366.000
366.000	838146.000
367.000	659623.000
368.000	496776.000
369.000	354871.000
370.000	244231.000
371.000	161212.000
372.000	102744.000
373.000	63929.000
374.000	39549.000
375.000	24503.000
376.000	16839.000
377.000	13095.000
378.000	12195.000
379.000	13070.000
380.000	15655.000
381.000	19618.000
382.000	25974.000
383.000	35797.000
384.000	48129.000
385.000	64432.000
386.000	83105.000
387.000	106652.000
388.000	131301.000
389.000	156131.000
390.000	177795.000
391.000	196321.000
392.000	207276.000
393.000	210254.000
394.000	203781.000
395.000	189810.000
396.000	169681.000
397.000	143778.000
398.000	118079.000
399.000	93523.000
400.000	70217.000
401.000	51061.000
402.000	35434.000
403.000	24436.000
404.000	16207.000
405.000	10597.000
406.000	7088.000
407.000	4662.000
408.000	3321.000
409.000	2479.000
410.000	2106.000
411.000	1813.000
412.000	1734.000
413.000	1618.000
414.000	1547.000
415.000	1566.000
416.000	1480.000
417.000	1506.000
418.000	1558.000
419.000	1626.000
420.000	1634.000
421.000	1687.000
422.000	1817.000
423.000	1952.000
424.000	2190.000
425.000	2610.000
426.000	3190.000
427.000	4106.000
428.000	5449.000
429.000	7397.000
430.000	10400.000
431.000	14745.000
432.000	20319.000
433.000	27143.000
434.000	35034.000
435.000	44913.000
436.000	55079.000
437.000	64906.000
438.000	74419.000
439.000	82098.000
440.000	86615.000
441.000	89201.000
442.000	87099.000
443.000	82096.000
444.000	75239.000
445.000	66006.000
446.000	55943.000
447.000	46452.000
448.000	37652.000
449.000	30103.000
450.000	24134.000
451.000	19647.000
452.000	16669.000
453.000	14583.000
454.000	13230.000
455.000	12020.000
456.000	11432.000
457.000	10405.000
458.000	9349.000
459.000	8463.000
460.000	7511.000
461.000	6804.000
462.000	5877.000
463.000	5348.000
464.000	5141.000
465.000	4945.000
466.000	4756.000
467.000	4958.000
468.000	5236.000
469.000	5835.000
470.000	6215.000
471.000	6988.000
472.000	7928.000
473.000	8722.000
474.000	10030.000
475.000	11322.000
476.000	12651.000
477.000	14291.000
478.000	15711.000
479.000	17189.000
480.000	18452.000
481.000	19282.000
482.000	20041.000
483.000	19606.000
484.000	18924.000
485.000	17765.000
486.000	16438.000
487.000	14479.000
488.000	12918.000
489.000	11123.000
490.000	9575.000
491.000	8153.000
492.000	6683.000
493.000	5808.000
494.000	5187.000
495.000	4425.000
496.000	4203.000
497.000	4154.000
498.000	4106.000
499.000	4093.000
500.000	4174.000
501.000	4086.000
502.000	4378.000
503.000	4421.000
504.000	4583.000
505.000	4725.000
506.000	4931.000
507.000	5018.000
508.000	5227.000
509.000	5272.000
510.000	5328.000
511.000	5609.000
512.000	5690.000
513.000	5792.000
514.000	5973.000
515.000	6263.000
516.000	6333.000
517.000	6792.000
518.000	7048.000
519.000	7305.000
520.000	7871.000
521.000	8242.000
522.000	8793.000
523.000	9284.000
524.000	10109.000
525.000	10753.000
526.000	11184.000
527.000	11717.000
528.000	11840.000
529.000	11872.000
530.000	11947.000
531.000	11569.000
532.000	11024.000
533.000	10125.000
534.000	9438.000
535.000	8730.000
536.000	8189.000
537.000	7341.000
538.000	6796.000
539.000	6288.000
540.000	6071.000
541.000	5880.000
542.000	5617.000
543.000	5505.000
544.000	5348.000
545.000	5232.000
546.000	5206.000
547.000	5324.000
548.000	5303.000
549.000	5312.000
550.000	5298.000
551.000	5465.000
552.000	5393.000
553.000	5498.000
554.000	5542.000
555.000	5740.000
556.000	5823.000
557.000	6041.000
558.000	6339.000
559.000	6514.000
560.000	6892.000
561.000	7695.000
562.000	8746.000
563.000	10008.000
564.000	12109.000
565.000	14449.000
566.000	17513.000
567.000	21542.000
568.000	26471.000
569.000	32172.000
570.000	38540.000
571.000	44669.000
572.000	50814.000
573.000	56315.000
574.000	60929.000
575.000	63944.000
576.000	64700.000
577.000	64818.000
578.000	62612.000
579.000	58066.000
580.000	52764.000
581.000	46757.000
582.000	40670.000
583.000	34467.000
584.000	28596.000
585.000	23588.000
586.000	19479.000
587.000	15869.000
588.000	13421.000
589.000	11461.000
590.000	10093.000
591.000	9327.000
592.000	8740.000
593.000	8414.000
594.000	8424.000
595.000	8591.000
596.000	8716.000
597.000	9016.000
598.000	9407.000
599.000	9644.000
600.000	10192.000
601.000	10960.000
602.000	11871.000
603.000	13006.000
604.000	14918.000
605.000	18067.000
606.000	22269.000
607.000	29019.000
608.000	39743.000
609.000	55707.000
610.000	79810.000
611.000	114355.000
612.000	163592.000
613.000	229649.000
614.000	319100.000
615.000	434520.000
616.000	573954.000
617.000	741268.000
618.000	931370.000
619.000	1138800.000
620.000	1352189.000
621.000	1558337.000
622.000	1743970.000
623.000	1897133.000
624.000	1999957.000
625.000	2045960.000
626.000	2035103.000
627.000	1961075.000
628.000	1837957.000
629.000	1665837.000
630.000	1472234.000
631.000	1260982.000
632.000	1050161.000
633.000	847347.000
634.000	666073.000
635.000	511333.000
636.000	381083.000
637.000	277563.000
638.000	197813.000
639.000	139292.000
640.000	96627.000
641.000	67395.000
642.000	47604.000
643.000	33967.000
644.000	25935.000
645.000	20563.000
646.000	17225.000
647.000	15168.000
648.000	13877.000
649.000	13066.000
650.000	12907.000
651.000	12606.000
652.000	12395.000
653.000	12518.000
654.000	12515.000
655.000	12580.000
656.000	12791.000
657.000	12832.000
658.000	13193.000
659.000	13093.000
660.000	13559.000
661.000	14003.000
662.000	14544.000
663.000	14615.000
664.000	15275.000
665.000	16127.000
666.000	16746.000
667.000	17359.000
668.000	18412.000
669.000	19852.000
670.000	21794.000
671.000	24263.000
672.000	26867.000
673.000	30970.000
674.000	36670.000
675.000	44067.000
676.000	53523.000
677.000	66373.000
678.000	81695.000
679.000	101173.000
680.000	123862.000
681.000	149836.000
682.000	179246.000
683.000	209599.000
684.000	239961.000
685.000	269346.000
686.000	294269.000
687.000	313039.000
688.000	328234.000
689.000	332261.000
690.000	329628.000
691.000	317468.000
692.000	297932.000
693.000	273346.000
694.000	244016.000
695.000	212543.000
696.000	181268.000
697.000	150724.000
698.000	121959.000
699.000	97825.000
700.000	76398.000
701.000	59495.000
702.000	45860.000
703.000	34827.000
704.000	27148.000
705.000	21552.000
706.000	17537.000
707.000	15092.000
708.000	13094.000
709.000	12062.000
710.000	11427.000
711.000	10904.000
712.000	10775.000
713.000	10937.000
714.000	11204.000
715.000	11427.000
716.000	11625.000
717.000	12123.000
718.000	12439.000
719.000	12808.000
720.000	13566.000
721.000	14197.000
722.000	14584.000
723.000	15322.000
724.000	15709.000
725.000	16430.000
726.000	17049.000
727.000	17283.000
728.000	17578.000
729.000	17521.000
730.000	17821.000
731.000	17364.000
732.000	17024.000
733.000	16818.000
734.000	16209.000
735.000	15528.000
736.000	15014.000
737.000	14604.000
738.000	13790.000
739.000	13596.000
740.000	13329.000
741.000	12833.000
742.000	12610.000
743.000	12175.000
744.000	12309.000
745.000	12169.000
746.000	12036.000
747.000	12185.000
748.000	12164.000
749.000	11972.000
750.000	12247.000
751.000	12249.000
752.000	12217.000
753.000	11965.000
754.000	12305.000
755.000	12589.000
756.000	12448.000
757.000	12498.000
758.000	12569.000
759.000	12526.000
760.000	12833.000
761.000	12915.000
762.000	12684.000
763.000	12684.000
764.000	13257.000
765.000	12964.000
766.000	13344.000
767.000	13691.000
768.000	13970.000
769.000	13912.000
770.000	14618.000
771.000	14679.000
772.000	14866.000
773.000	15684.000
774.000	16151.000
775.000	16860.000
776.000	17545.000
777.000	18395.000
778.000	19398.000
779.000	20382.000
780.000	21075.000
781.000	22530.000
782.000	23432.000
783.000	24375.000
784.000	24938.000
785.000	25940.000
786.000	26231.000
787.000	26879.000
788.000	26638.000
789.000	27399.000
790.000	27190.000
791.000	26986.000
792.000	27339.000
793.000	26943.000
794.000	27315.000
795.000	26733.000
796.000	27004.000
797.000	26393.000
798.000	26458.000
799.000	26424.000
800.000	26591.000
801.000	26813.000
802.000	26886.000
803.000	27110.000
804.000	27450.000
805.000	27748.000
806.000	28235.000
807.000	29413.000
808.000	30305.000
809.000	32223.000
810.000	33627.000
811.000	35675.000
812.000	37572.000
813.000	39685.000
814.000	42026.000
815.000	44485.000
816.000	46492.000
817.000	47870.000
818.000	48645.000
819.000	48577.000
820.000	48706.000
821.000	47669.000
822.000	46398.000
823.000	44529.000
824.000	42129.000
825.000	39812.000
826.000	36895.000
827.000	33994.000
828.000	31444.000
829.000	29388.000
830.000	27232.000
831.000	26177.000
832.000	24208.000
833.000	23777.000
834.000	23335.000
835.000	23150.000
836.000	23139.000
837.000	23166.000
838.000	23494.000
839.000	23659.000
840.000	24402.000
841.000	24647.000
842.000	24281.000
843.000	24922.000
844.000	24606.000
845.000	24595.000
846.000	24219.000
847.000	23948.000
848.000	23170.000
849.000	22742.000
850.000	22141.000
851.000	21592.000
852.000	21145.000
853.000	20812.000
854.000	20594.000
855.000	20338.000
856.000	19747.000
857.000	19713.000
858.000	19558.000
859.000	19526.000
860.000	19715.000
861.000	19469.000
862.000	19685.000
863.000	19736.000
864.000	19887.000
865.000	19762.000
866.000	20182.000
867.000	20113.000
868.000	19957.000
869.000	20322.000
870.000	20129.000
871.000	20383.000
872.000	20435.000
873.000	20488.000
874.000	20191.000
875.000	20182.000
876.000	20475.000
877.000	20549.000
878.000	20348.000
879.000	20373.000
880.000	20281.000
881.000	20405.000
882.000	20382.000
883.000	20672.000
884.000	20674.000
885.000	21021.000
886.000	20786.000
887.000	20881.000
888.000	21225.000
889.000	21879.000
890.000	21937.000
891.000	22027.000
892.000	22595.000
893.000	22898.000
894.000	23305.000
895.000	23714.000
896.000	23982.000
897.000	24526.000
898.000	25110.000
899.000	25193.000
900.000	25932.000
901.000	26225.000
902.000	26404.000
903.000	26976.000
904.000	27940.000
905.000	27596.000
906.000	28177.000
907.000	28172.000
908.000	28752.000
909.000	29072.000
910.000	28934.000
911.000	29207.000
912.000	29164.000
913.000	29442.000
914.000	29482.000
915.000	29853.000
916.000	29970.000
917.000	30141.000
918.000	30243.000
919.000	30418.000
920.000	30641.000
921.000	30882.000
922.000	30865.000
923.000	31235.000
924.000	31252.000
925.000	31210.000
926.000	31853.000
927.000	32155.000
928.000	32522.000
929.000	33161.000
930.000	33527.000
931.000	34137.000
932.000	35144.000
933.000	35159.000
934.000	36405.000
935.000	36923.000
936.000	38038.000
937.000	38817.000
938.000	40290.000
939.000	40786.000
940.000	41671.000
941.000	42335.000
942.000	42820.000
943.000	42864.000
944.000	42594.000
945.000	42065.000
946.000	41729.000
947.000	41494.000
948.000	40189.000
949.000	38767.000
950.000	37566.000
951.000	36544.000
952.000	34699.000
953.000	33751.000
954.000	32995.000
955.000	31991.000
956.000	31093.000
957.000	30357.000
958.000	29972.000
959.000	29407.000
960.000	29197.000
961.000	29077.000
962.000	29276.000
963.000	29272.000
964.000	29142.000
965.000	29565.000
966.000	29736.000
967.000	30361.000
968.000	30181.000
969.000	30450.000
970.000	30547.000
971.000	30586.000
972.000	30607.000
973.000	30453.000
974.000	30232.000
975.000	29707.000
976.000	29462.000
977.000	29020.000
978.000	28394.000
979.000	27985.000
980.000	27420.000
981.000	27013.000
982.000	26654.000
983.000	26123.000
984.000	25834.000
985.000	25112.000
986.000	25015.000
987.000	24842.000
988.000	24655.000
989.000	24704.000
990.000	24073.000
991.000	24090.000
992.000	23887.000
993.000	23761.000
994.000	23407.000
995.000	23425.000
996.000	23254.000
997.000	23313.000
998.000	23173.000
999.000	23066.000
1000.000	23031.000
1001.000	23084.000
1002.000	23138.000
1003.000	22856.000
1004.000	22744.000
1005.000	22734.000
1006.000	22958.000
1007.000	22919.000
1008.000	22822.000
1009.000	22960.000
1010.000	23077.000
1011.000	23181.000
1012.000	23143.000
1013.000	23074.000
1014.000	23309.000
1015.000	23188.000
1016.000	23248.000
1017.000	23456.000
1018.000	23870.000
1019.000	23890.000
1020.000	23838.000
1021.000	23997.000
1022.000	23990.000
1023.000	24479.000
1024.000	24593.000
1025.000	24619.000
1026.000	25000.000
1027.000	24874.000
1028.000	25215.000
1029.000	25236.000
1030.000	24998.000
1031.000	25089.000
1032.000	25001.000
1033.000	25110.000
