Date:	22-Sep-20		Time:	9:09 PM		Version no:	0.00		Project name:	55		Sample name:	222		Section name:	section		Position	936.540018	mm	E0	0.000000	keV	E1	1.000000	keV/channel	sample surface	6.454906	cm	Tube anode:	Mo		Tube voltage:	30	kV	Tube current:	30	mA	gain	15		std. database			resultfile	result		matrix element	11		sample thickness	1.000000		air passage	0.560000	cm	comments	in position		peaking_time	0.300000	m-sec	trigger_threshold	40.000000	V	mca_bin_width	2.000000	no:	number_mca_channels	2048.000000	no:	gap_time	2048.000000	m-sec	trigger_peaking_time	2048.000000	m-sec	GAINDAC	400		HIGHGAIN	400		TAURC	400		RCTAU	400		RCTAUFRAC	400		livetime	13.529776	seconds	runtime	15.000023	seconds	input_count_rate	49262.900224	cps	output_count_rate	44434.330386	cps	triggers	727029	seconds	events_in_run	652377	seconds	channel	content		1.000	0.000
2.000	0.000
3.000	0.000
4.000	0.000
5.000	0.000
6.000	0.000
7.000	0.000
8.000	0.000
9.000	0.000
10.000	0.000
11.000	0.000
12.000	0.000
13.000	0.000
14.000	0.000
15.000	0.000
16.000	0.000
17.000	0.000
18.000	0.000
19.000	0.000
20.000	0.000
21.000	0.000
22.000	0.000
23.000	0.000
24.000	0.000
25.000	0.000
26.000	0.000
27.000	0.000
28.000	0.000
29.000	0.000
30.000	0.000
31.000	0.000
32.000	0.000
33.000	0.000
34.000	0.000
35.000	0.000
36.000	0.000
37.000	0.000
38.000	1.000
39.000	0.000
40.000	1.000
41.000	0.000
42.000	1.000
43.000	0.000
44.000	0.000
45.000	0.000
46.000	0.000
47.000	0.000
48.000	0.000
49.000	0.000
50.000	0.000
51.000	0.000
52.000	0.000
53.000	3.000
54.000	4.000
55.000	3.000
56.000	7.000
57.000	6.000
58.000	6.000
59.000	21.000
60.000	21.000
61.000	29.000
62.000	22.000
63.000	22.000
64.000	25.000
65.000	18.000
66.000	13.000
67.000	21.000
68.000	22.000
69.000	37.000
70.000	27.000
71.000	26.000
72.000	24.000
73.000	18.000
74.000	22.000
75.000	24.000
76.000	13.000
77.000	27.000
78.000	27.000
79.000	19.000
80.000	25.000
81.000	15.000
82.000	17.000
83.000	23.000
84.000	25.000
85.000	18.000
86.000	30.000
87.000	16.000
88.000	13.000
89.000	20.000
90.000	23.000
91.000	19.000
92.000	17.000
93.000	11.000
94.000	18.000
95.000	23.000
96.000	15.000
97.000	20.000
98.000	19.000
99.000	22.000
100.000	22.000
101.000	14.000
102.000	23.000
103.000	25.000
104.000	12.000
105.000	16.000
106.000	15.000
107.000	23.000
108.000	12.000
109.000	13.000
110.000	15.000
111.000	15.000
112.000	13.000
113.000	11.000
114.000	18.000
115.000	14.000
116.000	18.000
117.000	15.000
118.000	17.000
119.000	7.000
120.000	12.000
121.000	15.000
122.000	9.000
123.000	12.000
124.000	17.000
125.000	23.000
126.000	9.000
127.000	11.000
128.000	16.000
129.000	8.000
130.000	16.000
131.000	20.000
132.000	16.000
133.000	11.000
134.000	12.000
135.000	16.000
136.000	15.000
137.000	13.000
138.000	23.000
139.000	15.000
140.000	19.000
141.000	23.000
142.000	22.000
143.000	27.000
144.000	29.000
145.000	34.000
146.000	24.000
147.000	27.000
148.000	21.000
149.000	19.000
150.000	19.000
151.000	16.000
152.000	18.000
153.000	18.000
154.000	16.000
155.000	16.000
156.000	20.000
157.000	7.000
158.000	15.000
159.000	16.000
160.000	14.000
161.000	14.000
162.000	16.000
163.000	20.000
164.000	26.000
165.000	23.000
166.000	45.000
167.000	55.000
168.000	58.000
169.000	58.000
170.000	81.000
171.000	65.000
172.000	65.000
173.000	66.000
174.000	58.000
175.000	50.000
176.000	38.000
177.000	33.000
178.000	30.000
179.000	34.000
180.000	19.000
181.000	24.000
182.000	24.000
183.000	38.000
184.000	44.000
185.000	52.000
186.000	74.000
187.000	101.000
188.000	108.000
189.000	140.000
190.000	155.000
191.000	149.000
192.000	173.000
193.000	127.000
194.000	117.000
195.000	93.000
196.000	63.000
197.000	47.000
198.000	47.000
199.000	23.000
200.000	30.000
201.000	16.000
202.000	15.000
203.000	14.000
204.000	11.000
205.000	15.000
206.000	12.000
207.000	8.000
208.000	15.000
209.000	14.000
210.000	10.000
211.000	14.000
212.000	11.000
213.000	17.000
214.000	24.000
215.000	20.000
216.000	7.000
217.000	21.000
218.000	26.000
219.000	30.000
220.000	21.000
221.000	32.000
222.000	31.000
223.000	36.000
224.000	37.000
225.000	33.000
226.000	20.000
227.000	23.000
228.000	20.000
229.000	28.000
230.000	11.000
231.000	11.000
232.000	8.000
233.000	12.000
234.000	11.000
235.000	11.000
236.000	13.000
237.000	9.000
238.000	13.000
239.000	15.000
240.000	8.000
241.000	6.000
242.000	8.000
243.000	11.000
244.000	15.000
245.000	16.000
246.000	12.000
247.000	18.000
248.000	23.000
249.000	31.000
250.000	43.000
251.000	47.000
252.000	70.000
253.000	75.000
254.000	102.000
255.000	106.000
256.000	146.000
257.000	128.000
258.000	124.000
259.000	129.000
260.000	123.000
261.000	81.000
262.000	82.000
263.000	60.000
264.000	40.000
265.000	44.000
266.000	20.000
267.000	28.000
268.000	17.000
269.000	25.000
270.000	25.000
271.000	26.000
272.000	24.000
273.000	31.000
274.000	24.000
275.000	25.000
276.000	28.000
277.000	27.000
278.000	22.000
279.000	25.000
280.000	22.000
281.000	35.000
282.000	18.000
283.000	37.000
284.000	26.000
285.000	41.000
286.000	39.000
287.000	57.000
288.000	39.000
289.000	56.000
290.000	47.000
291.000	48.000
292.000	43.000
293.000	46.000
294.000	36.000
295.000	29.000
296.000	28.000
297.000	31.000
298.000	12.000
299.000	8.000
300.000	13.000
301.000	17.000
302.000	13.000
303.000	17.000
304.000	18.000
305.000	18.000
306.000	12.000
307.000	28.000
308.000	18.000
309.000	31.000
310.000	21.000
311.000	17.000
312.000	41.000
313.000	34.000
314.000	42.000
315.000	34.000
316.000	69.000
317.000	70.000
318.000	93.000
319.000	104.000
320.000	131.000
321.000	182.000
322.000	198.000
323.000	220.000
324.000	230.000
325.000	225.000
326.000	202.000
327.000	186.000
328.000	176.000
329.000	143.000
330.000	109.000
331.000	71.000
332.000	71.000
333.000	57.000
334.000	35.000
335.000	23.000
336.000	29.000
337.000	28.000
338.000	29.000
339.000	43.000
340.000	29.000
341.000	36.000
342.000	44.000
343.000	60.000
344.000	75.000
345.000	83.000
346.000	139.000
347.000	197.000
348.000	330.000
349.000	454.000
350.000	724.000
351.000	1135.000
352.000	1668.000
353.000	2505.000
354.000	3533.000
355.000	4823.000
356.000	6241.000
357.000	7890.000
358.000	9313.000
359.000	10930.000
360.000	11863.000
361.000	12402.000
362.000	12078.000
363.000	11798.000
364.000	10484.000
365.000	9022.000
366.000	7558.000
367.000	5779.000
368.000	4583.000
369.000	3146.000
370.000	2094.000
371.000	1489.000
372.000	896.000
373.000	569.000
374.000	335.000
375.000	236.000
376.000	148.000
377.000	125.000
378.000	102.000
379.000	109.000
380.000	132.000
381.000	168.000
382.000	234.000
383.000	303.000
384.000	387.000
385.000	546.000
386.000	748.000
387.000	946.000
388.000	1123.000
389.000	1384.000
390.000	1556.000
391.000	1702.000
392.000	1760.000
393.000	1806.000
394.000	1753.000
395.000	1721.000
396.000	1484.000
397.000	1206.000
398.000	1067.000
399.000	851.000
400.000	635.000
401.000	456.000
402.000	302.000
403.000	201.000
404.000	153.000
405.000	88.000
406.000	58.000
407.000	37.000
408.000	17.000
409.000	16.000
410.000	9.000
411.000	13.000
412.000	5.000
413.000	13.000
414.000	11.000
415.000	15.000
416.000	11.000
417.000	6.000
418.000	10.000
419.000	13.000
420.000	8.000
421.000	10.000
422.000	10.000
423.000	15.000
424.000	11.000
425.000	19.000
426.000	18.000
427.000	27.000
428.000	34.000
429.000	50.000
430.000	83.000
431.000	117.000
432.000	168.000
433.000	219.000
434.000	312.000
435.000	353.000
436.000	481.000
437.000	620.000
438.000	631.000
439.000	703.000
440.000	773.000
441.000	797.000
442.000	847.000
443.000	731.000
444.000	667.000
445.000	560.000
446.000	522.000
447.000	396.000
448.000	350.000
449.000	238.000
450.000	200.000
451.000	158.000
452.000	117.000
453.000	95.000
454.000	103.000
455.000	75.000
456.000	74.000
457.000	65.000
458.000	58.000
459.000	43.000
460.000	33.000
461.000	32.000
462.000	30.000
463.000	33.000
464.000	23.000
465.000	18.000
466.000	32.000
467.000	21.000
468.000	31.000
469.000	23.000
470.000	25.000
471.000	37.000
472.000	31.000
473.000	39.000
474.000	47.000
475.000	78.000
476.000	81.000
477.000	95.000
478.000	127.000
479.000	123.000
480.000	124.000
481.000	160.000
482.000	149.000
483.000	160.000
484.000	149.000
485.000	133.000
486.000	139.000
487.000	111.000
488.000	116.000
489.000	74.000
490.000	71.000
491.000	37.000
492.000	46.000
493.000	38.000
494.000	35.000
495.000	35.000
496.000	24.000
497.000	21.000
498.000	24.000
499.000	17.000
500.000	15.000
501.000	18.000
502.000	20.000
503.000	19.000
504.000	17.000
505.000	14.000
506.000	25.000
507.000	21.000
508.000	18.000
509.000	27.000
510.000	24.000
511.000	24.000
512.000	26.000
513.000	34.000
514.000	45.000
515.000	28.000
516.000	30.000
517.000	36.000
518.000	32.000
519.000	28.000
520.000	46.000
521.000	50.000
522.000	39.000
523.000	55.000
524.000	56.000
525.000	63.000
526.000	70.000
527.000	63.000
528.000	80.000
529.000	85.000
530.000	73.000
531.000	68.000
532.000	49.000
533.000	66.000
534.000	45.000
535.000	43.000
536.000	42.000
537.000	33.000
538.000	33.000
539.000	32.000
540.000	38.000
541.000	21.000
542.000	30.000
543.000	32.000
544.000	24.000
545.000	29.000
546.000	23.000
547.000	25.000
548.000	27.000
549.000	24.000
550.000	26.000
551.000	12.000
552.000	23.000
553.000	28.000
554.000	19.000
555.000	24.000
556.000	26.000
557.000	27.000
558.000	31.000
559.000	33.000
560.000	38.000
561.000	28.000
562.000	44.000
563.000	38.000
564.000	52.000
565.000	60.000
566.000	71.000
567.000	75.000
568.000	99.000
569.000	99.000
570.000	117.000
571.000	149.000
572.000	167.000
573.000	189.000
574.000	195.000
575.000	201.000
576.000	226.000
577.000	236.000
578.000	194.000
579.000	212.000
580.000	178.000
581.000	143.000
582.000	140.000
583.000	120.000
584.000	108.000
585.000	88.000
586.000	79.000
587.000	63.000
588.000	73.000
589.000	61.000
590.000	49.000
591.000	42.000
592.000	49.000
593.000	39.000
594.000	43.000
595.000	41.000
596.000	46.000
597.000	56.000
598.000	46.000
599.000	58.000
600.000	54.000
601.000	66.000
602.000	74.000
603.000	81.000
604.000	89.000
605.000	87.000
606.000	116.000
607.000	169.000
608.000	228.000
609.000	336.000
610.000	469.000
611.000	705.000
612.000	1033.000
613.000	1463.000
614.000	1914.000
615.000	2816.000
616.000	3593.000
617.000	4558.000
618.000	5870.000
619.000	7273.000
620.000	8565.000
621.000	9988.000
622.000	10925.000
623.000	12009.000
624.000	12688.000
625.000	12883.000
626.000	12860.000
627.000	12380.000
628.000	11599.000
629.000	10323.000
630.000	9195.000
631.000	7857.000
632.000	6394.000
633.000	5329.000
634.000	4176.000
635.000	3218.000
636.000	2443.000
637.000	1793.000
638.000	1283.000
639.000	870.000
640.000	600.000
641.000	412.000
642.000	279.000
643.000	227.000
644.000	155.000
645.000	117.000
646.000	88.000
647.000	93.000
648.000	80.000
649.000	65.000
650.000	62.000
651.000	62.000
652.000	62.000
653.000	54.000
654.000	70.000
655.000	70.000
656.000	67.000
657.000	62.000
658.000	60.000
659.000	70.000
660.000	82.000
661.000	65.000
662.000	77.000
663.000	81.000
664.000	92.000
665.000	87.000
666.000	87.000
667.000	89.000
668.000	95.000
669.000	117.000
670.000	121.000
671.000	137.000
672.000	164.000
673.000	180.000
674.000	225.000
675.000	226.000
676.000	325.000
677.000	382.000
678.000	478.000
679.000	633.000
680.000	816.000
681.000	948.000
682.000	1092.000
683.000	1309.000
684.000	1474.000
685.000	1730.000
686.000	1837.000
687.000	1957.000
688.000	2013.000
689.000	2110.000
690.000	2055.000
691.000	2086.000
692.000	1839.000
693.000	1685.000
694.000	1451.000
695.000	1352.000
696.000	1129.000
697.000	972.000
698.000	778.000
699.000	653.000
700.000	451.000
701.000	386.000
702.000	290.000
703.000	207.000
704.000	161.000
705.000	111.000
706.000	110.000
707.000	72.000
708.000	80.000
709.000	76.000
710.000	45.000
711.000	58.000
712.000	43.000
713.000	52.000
714.000	44.000
715.000	60.000
716.000	60.000
717.000	55.000
718.000	63.000
719.000	55.000
720.000	65.000
721.000	74.000
722.000	76.000
723.000	68.000
724.000	85.000
725.000	102.000
726.000	73.000
727.000	81.000
728.000	82.000
729.000	105.000
730.000	90.000
731.000	111.000
732.000	80.000
733.000	80.000
734.000	78.000
735.000	79.000
736.000	81.000
737.000	79.000
738.000	61.000
739.000	78.000
740.000	62.000
741.000	49.000
742.000	59.000
743.000	42.000
744.000	66.000
745.000	66.000
746.000	59.000
747.000	63.000
748.000	59.000
749.000	78.000
750.000	68.000
751.000	62.000
752.000	61.000
753.000	61.000
754.000	53.000
755.000	56.000
756.000	65.000
757.000	71.000
758.000	63.000
759.000	68.000
760.000	51.000
761.000	65.000
762.000	78.000
763.000	66.000
764.000	57.000
765.000	56.000
766.000	61.000
767.000	55.000
768.000	67.000
769.000	67.000
770.000	71.000
771.000	56.000
772.000	68.000
773.000	74.000
774.000	65.000
775.000	74.000
776.000	83.000
777.000	95.000
778.000	97.000
779.000	102.000
780.000	107.000
781.000	91.000
782.000	130.000
783.000	118.000
784.000	110.000
785.000	112.000
786.000	121.000
787.000	126.000
788.000	121.000
789.000	125.000
790.000	119.000
791.000	132.000
792.000	110.000
793.000	121.000
794.000	132.000
795.000	111.000
796.000	141.000
797.000	118.000
798.000	133.000
799.000	137.000
800.000	140.000
801.000	125.000
802.000	126.000
803.000	130.000
804.000	140.000
805.000	140.000
806.000	151.000
807.000	155.000
808.000	162.000
809.000	162.000
810.000	194.000
811.000	166.000
812.000	170.000
813.000	211.000
814.000	215.000
815.000	229.000
816.000	253.000
817.000	239.000
818.000	237.000
819.000	279.000
820.000	254.000
821.000	249.000
822.000	243.000
823.000	234.000
824.000	200.000
825.000	179.000
826.000	191.000
827.000	138.000
828.000	153.000
829.000	146.000
830.000	148.000
831.000	148.000
832.000	111.000
833.000	103.000
834.000	121.000
835.000	97.000
836.000	124.000
837.000	136.000
838.000	103.000
839.000	111.000
840.000	129.000
841.000	126.000
842.000	120.000
843.000	118.000
844.000	127.000
845.000	135.000
846.000	118.000
847.000	118.000
848.000	131.000
849.000	129.000
850.000	96.000
851.000	123.000
852.000	125.000
853.000	116.000
854.000	93.000
855.000	94.000
856.000	113.000
857.000	109.000
858.000	95.000
859.000	94.000
860.000	109.000
861.000	84.000
862.000	90.000
863.000	88.000
864.000	89.000
865.000	114.000
866.000	114.000
867.000	101.000
868.000	111.000
869.000	111.000
870.000	106.000
871.000	103.000
872.000	95.000
873.000	99.000
874.000	97.000
875.000	114.000
876.000	114.000
877.000	104.000
878.000	100.000
879.000	102.000
880.000	91.000
881.000	124.000
882.000	121.000
883.000	92.000
884.000	120.000
885.000	102.000
886.000	118.000
887.000	113.000
888.000	102.000
889.000	94.000
890.000	95.000
891.000	95.000
892.000	124.000
893.000	101.000
894.000	119.000
895.000	132.000
896.000	118.000
897.000	130.000
898.000	118.000
899.000	133.000
900.000	133.000
901.000	136.000
902.000	112.000
903.000	122.000
904.000	131.000
905.000	137.000
906.000	143.000
907.000	122.000
908.000	142.000
909.000	156.000
910.000	148.000
911.000	140.000
912.000	145.000
913.000	153.000
914.000	141.000
915.000	148.000
916.000	148.000
917.000	164.000
918.000	143.000
919.000	130.000
920.000	145.000
921.000	150.000
922.000	170.000
923.000	163.000
924.000	178.000
925.000	148.000
926.000	155.000
927.000	150.000
928.000	146.000
929.000	160.000
930.000	159.000
931.000	185.000
932.000	159.000
933.000	191.000
934.000	201.000
935.000	208.000
936.000	218.000
937.000	211.000
938.000	203.000
939.000	213.000
940.000	211.000
941.000	246.000
942.000	238.000
943.000	224.000
944.000	243.000
945.000	239.000
946.000	222.000
947.000	196.000
948.000	225.000
949.000	228.000
950.000	189.000
951.000	180.000
952.000	171.000
953.000	176.000
954.000	174.000
955.000	162.000
956.000	167.000
957.000	155.000
958.000	166.000
959.000	156.000
960.000	162.000
961.000	166.000
962.000	175.000
963.000	171.000
964.000	158.000
965.000	150.000
966.000	167.000
967.000	158.000
968.000	161.000
969.000	162.000
970.000	143.000
971.000	173.000
972.000	164.000
973.000	177.000
974.000	163.000
975.000	152.000
976.000	172.000
977.000	163.000
978.000	158.000
979.000	146.000
980.000	174.000
981.000	151.000
982.000	137.000
983.000	157.000
984.000	136.000
985.000	141.000
986.000	134.000
987.000	139.000
988.000	146.000
989.000	129.000
990.000	145.000
991.000	136.000
992.000	121.000
993.000	127.000
994.000	131.000
995.000	123.000
996.000	120.000
997.000	125.000
998.000	134.000
999.000	102.000
1000.000	94.000
1001.000	108.000
1002.000	125.000
1003.000	99.000
1004.000	134.000
1005.000	139.000
1006.000	128.000
1007.000	122.000
1008.000	109.000
1009.000	120.000
1010.000	125.000
1011.000	107.000
1012.000	142.000
1013.000	126.000
1014.000	115.000
1015.000	110.000
1016.000	121.000
1017.000	127.000
1018.000	120.000
1019.000	135.000
1020.000	121.000
1021.000	117.000
1022.000	129.000
1023.000	133.000
1024.000	126.000
1025.000	109.000
1026.000	131.000
1027.000	138.000
1028.000	122.000
1029.000	139.000
1030.000	139.000
1031.000	126.000
1032.000	118.000
1033.000	138.000
1034.000	135.000
1035.000	126.000
1036.000	139.000
1037.000	128.000
1038.000	130.000
1039.000	125.000
1040.000	119.000
1041.000	136.000
1042.000	124.000
1043.000	124.000
1044.000	139.000
1045.000	158.000
1046.000	149.000
1047.000	129.000
1048.000	117.000
1049.000	150.000
1050.000	116.000
1051.000	185.000
1052.000	147.000
1053.000	156.000
1054.000	163.000
1055.000	116.000
1056.000	152.000
1057.000	118.000
1058.000	159.000
1059.000	127.000
1060.000	140.000
1061.000	146.000
1062.000	121.000
1063.000	133.000
1064.000	142.000
1065.000	154.000
1066.000	136.000
1067.000	146.000
1068.000	149.000
1069.000	134.000
1070.000	160.000
1071.000	132.000
1072.000	139.000
1073.000	152.000
1074.000	147.000
1075.000	135.000
1076.000	156.000
1077.000	148.000
1078.000	126.000
1079.000	138.000
1080.000	145.000
1081.000	128.000
1082.000	140.000
1083.000	126.000
1084.000	154.000
1085.000	136.000
1086.000	117.000
1087.000	155.000
1088.000	123.000
1089.000	144.000
1090.000	149.000
1091.000	150.000
1092.000	164.000
1093.000	135.000
1094.000	151.000
1095.000	157.000
1096.000	158.000
1097.000	152.000
1098.000	170.000
1099.000	163.000
1100.000	164.000
1101.000	158.000
1102.000	143.000
1103.000	162.000
1104.000	144.000
1105.000	155.000
1106.000	140.000
1107.000	149.000
1108.000	144.000
1109.000	144.000
1110.000	152.000
1111.000	131.000
1112.000	160.000
1113.000	152.000
1114.000	120.000
1115.000	162.000
1116.000	110.000
1117.000	148.000
1118.000	125.000
1119.000	159.000
1120.000	157.000
1121.000	143.000
1122.000	148.000
1123.000	150.000
1124.000	162.000
1125.000	148.000
1126.000	138.000
1127.000	129.000
1128.000	162.000
1129.000	131.000
1130.000	140.000
1131.000	144.000
1132.000	144.000
1133.000	153.000
1134.000	139.000
1135.000	139.000
1136.000	140.000
1137.000	137.000
1138.000	145.000
1139.000	136.000
1140.000	156.000
1141.000	153.000
1142.000	157.000
1143.000	155.000
1144.000	134.000
1145.000	134.000
1146.000	135.000
1147.000	140.000
1148.000	157.000
1149.000	177.000
1150.000	152.000
1151.000	140.000
1152.000	166.000
1153.000	188.000
1154.000	145.000
1155.000	161.000
