Date:	22-Sep-20		Time:	7:02 PM		Version no:	0.00		Project name:	55		Sample name:	222		Section name:	section		Position	456.540018	mm	E0	0.000000	keV	E1	1.000000	keV/channel	sample surface	6.163412	cm	Tube anode:	Mo		Tube voltage:	30	kV	Tube current:	30	mA	gain	15		std. database			resultfile	result		matrix element	11		sample thickness	1.000000		air passage	0.560000	cm	comments	in position		peaking_time	0.300000	m-sec	trigger_threshold	40.000000	V	mca_bin_width	2.000000	no:	number_mca_channels	2048.000000	no:	gap_time	2048.000000	m-sec	trigger_peaking_time	2048.000000	m-sec	GAINDAC	400		HIGHGAIN	400		TAURC	400		RCTAU	400		RCTAUFRAC	400		livetime	13.356385	seconds	runtime	15.000144	seconds	input_count_rate	49306.978315	cps	output_count_rate	43903.779987	cps	triggers	726919	seconds	events_in_run	641358	seconds	channel	content		1.000	0.000
2.000	0.000
3.000	0.000
4.000	0.000
5.000	0.000
6.000	0.000
7.000	0.000
8.000	0.000
9.000	0.000
10.000	0.000
11.000	0.000
12.000	0.000
13.000	0.000
14.000	0.000
15.000	0.000
16.000	0.000
17.000	0.000
18.000	0.000
19.000	0.000
20.000	0.000
21.000	0.000
22.000	0.000
23.000	0.000
24.000	0.000
25.000	0.000
26.000	0.000
27.000	0.000
28.000	0.000
29.000	0.000
30.000	0.000
31.000	2.000
32.000	0.000
33.000	1.000
34.000	0.000
35.000	1.000
36.000	1.000
37.000	1.000
38.000	1.000
39.000	1.000
40.000	0.000
41.000	0.000
42.000	0.000
43.000	0.000
44.000	0.000
45.000	0.000
46.000	0.000
47.000	0.000
48.000	1.000
49.000	1.000
50.000	0.000
51.000	5.000
52.000	2.000
53.000	7.000
54.000	4.000
55.000	5.000
56.000	11.000
57.000	12.000
58.000	16.000
59.000	25.000
60.000	33.000
61.000	24.000
62.000	36.000
63.000	35.000
64.000	31.000
65.000	44.000
66.000	43.000
67.000	30.000
68.000	25.000
69.000	37.000
70.000	33.000
71.000	38.000
72.000	22.000
73.000	28.000
74.000	30.000
75.000	29.000
76.000	26.000
77.000	26.000
78.000	25.000
79.000	29.000
80.000	18.000
81.000	25.000
82.000	29.000
83.000	35.000
84.000	29.000
85.000	21.000
86.000	26.000
87.000	27.000
88.000	20.000
89.000	16.000
90.000	32.000
91.000	20.000
92.000	21.000
93.000	31.000
94.000	30.000
95.000	26.000
96.000	23.000
97.000	31.000
98.000	22.000
99.000	24.000
100.000	15.000
101.000	24.000
102.000	21.000
103.000	26.000
104.000	16.000
105.000	23.000
106.000	21.000
107.000	21.000
108.000	13.000
109.000	19.000
110.000	23.000
111.000	22.000
112.000	19.000
113.000	25.000
114.000	17.000
115.000	22.000
116.000	22.000
117.000	13.000
118.000	25.000
119.000	24.000
120.000	27.000
121.000	16.000
122.000	10.000
123.000	20.000
124.000	29.000
125.000	15.000
126.000	17.000
127.000	15.000
128.000	26.000
129.000	19.000
130.000	10.000
131.000	10.000
132.000	19.000
133.000	15.000
134.000	10.000
135.000	17.000
136.000	15.000
137.000	17.000
138.000	13.000
139.000	23.000
140.000	21.000
141.000	22.000
142.000	24.000
143.000	27.000
144.000	36.000
145.000	37.000
146.000	37.000
147.000	22.000
148.000	21.000
149.000	17.000
150.000	24.000
151.000	29.000
152.000	25.000
153.000	27.000
154.000	27.000
155.000	13.000
156.000	16.000
157.000	19.000
158.000	20.000
159.000	22.000
160.000	9.000
161.000	17.000
162.000	23.000
163.000	23.000
164.000	29.000
165.000	38.000
166.000	49.000
167.000	56.000
168.000	76.000
169.000	90.000
170.000	93.000
171.000	83.000
172.000	87.000
173.000	79.000
174.000	71.000
175.000	53.000
176.000	47.000
177.000	40.000
178.000	36.000
179.000	40.000
180.000	30.000
181.000	35.000
182.000	45.000
183.000	43.000
184.000	51.000
185.000	73.000
186.000	104.000
187.000	130.000
188.000	158.000
189.000	171.000
190.000	185.000
191.000	210.000
192.000	197.000
193.000	166.000
194.000	144.000
195.000	128.000
196.000	93.000
197.000	51.000
198.000	59.000
199.000	30.000
200.000	26.000
201.000	18.000
202.000	19.000
203.000	14.000
204.000	11.000
205.000	12.000
206.000	14.000
207.000	20.000
208.000	12.000
209.000	13.000
210.000	18.000
211.000	12.000
212.000	16.000
213.000	17.000
214.000	21.000
215.000	22.000
216.000	30.000
217.000	35.000
218.000	22.000
219.000	36.000
220.000	35.000
221.000	43.000
222.000	37.000
223.000	33.000
224.000	43.000
225.000	34.000
226.000	29.000
227.000	37.000
228.000	27.000
229.000	27.000
230.000	21.000
231.000	20.000
232.000	17.000
233.000	16.000
234.000	10.000
235.000	16.000
236.000	12.000
237.000	11.000
238.000	14.000
239.000	13.000
240.000	18.000
241.000	14.000
242.000	10.000
243.000	16.000
244.000	13.000
245.000	21.000
246.000	15.000
247.000	16.000
248.000	29.000
249.000	38.000
250.000	43.000
251.000	71.000
252.000	88.000
253.000	122.000
254.000	158.000
255.000	184.000
256.000	160.000
257.000	174.000
258.000	178.000
259.000	159.000
260.000	129.000
261.000	122.000
262.000	86.000
263.000	60.000
264.000	43.000
265.000	43.000
266.000	24.000
267.000	22.000
268.000	28.000
269.000	25.000
270.000	22.000
271.000	28.000
272.000	35.000
273.000	38.000
274.000	30.000
275.000	40.000
276.000	25.000
277.000	27.000
278.000	37.000
279.000	18.000
280.000	39.000
281.000	26.000
282.000	21.000
283.000	36.000
284.000	34.000
285.000	34.000
286.000	48.000
287.000	59.000
288.000	68.000
289.000	58.000
290.000	71.000
291.000	69.000
292.000	63.000
293.000	57.000
294.000	52.000
295.000	28.000
296.000	33.000
297.000	36.000
298.000	27.000
299.000	12.000
300.000	20.000
301.000	25.000
302.000	15.000
303.000	25.000
304.000	31.000
305.000	26.000
306.000	19.000
307.000	20.000
308.000	22.000
309.000	25.000
310.000	37.000
311.000	38.000
312.000	48.000
313.000	44.000
314.000	63.000
315.000	84.000
316.000	111.000
317.000	143.000
318.000	229.000
319.000	284.000
320.000	285.000
321.000	383.000
322.000	461.000
323.000	474.000
324.000	553.000
325.000	534.000
326.000	478.000
327.000	468.000
328.000	408.000
329.000	360.000
330.000	295.000
331.000	215.000
332.000	121.000
333.000	100.000
334.000	84.000
335.000	66.000
336.000	47.000
337.000	44.000
338.000	38.000
339.000	40.000
340.000	50.000
341.000	48.000
342.000	58.000
343.000	66.000
344.000	88.000
345.000	115.000
346.000	181.000
347.000	271.000
348.000	435.000
349.000	610.000
350.000	980.000
351.000	1520.000
352.000	2178.000
353.000	3267.000
354.000	4738.000
355.000	6179.000
356.000	8227.000
357.000	10417.000
358.000	12445.000
359.000	14007.000
360.000	15331.000
361.000	15864.000
362.000	16306.000
363.000	15113.000
364.000	13677.000
365.000	11713.000
366.000	9704.000
367.000	7607.000
368.000	5837.000
369.000	4162.000
370.000	2894.000
371.000	1834.000
372.000	1192.000
373.000	756.000
374.000	455.000
375.000	276.000
376.000	192.000
377.000	148.000
378.000	137.000
379.000	139.000
380.000	167.000
381.000	205.000
382.000	282.000
383.000	389.000
384.000	549.000
385.000	785.000
386.000	1019.000
387.000	1159.000
388.000	1498.000
389.000	1795.000
390.000	2020.000
391.000	2243.000
392.000	2294.000
393.000	2355.000
394.000	2295.000
395.000	2165.000
396.000	1906.000
397.000	1577.000
398.000	1305.000
399.000	1031.000
400.000	783.000
401.000	539.000
402.000	398.000
403.000	258.000
404.000	185.000
405.000	100.000
406.000	70.000
407.000	45.000
408.000	28.000
409.000	21.000
410.000	15.000
411.000	11.000
412.000	9.000
413.000	7.000
414.000	6.000
415.000	6.000
416.000	3.000
417.000	13.000
418.000	11.000
419.000	4.000
420.000	10.000
421.000	6.000
422.000	11.000
423.000	5.000
424.000	7.000
425.000	13.000
426.000	12.000
427.000	18.000
428.000	21.000
429.000	24.000
430.000	34.000
431.000	33.000
432.000	55.000
433.000	66.000
434.000	73.000
435.000	116.000
436.000	137.000
437.000	150.000
438.000	190.000
439.000	232.000
440.000	257.000
441.000	225.000
442.000	210.000
443.000	199.000
444.000	208.000
445.000	153.000
446.000	164.000
447.000	137.000
448.000	103.000
449.000	81.000
450.000	68.000
451.000	64.000
452.000	49.000
453.000	49.000
454.000	50.000
455.000	45.000
456.000	34.000
457.000	44.000
458.000	41.000
459.000	28.000
460.000	28.000
461.000	23.000
462.000	19.000
463.000	19.000
464.000	18.000
465.000	15.000
466.000	18.000
467.000	10.000
468.000	20.000
469.000	20.000
470.000	22.000
471.000	30.000
472.000	24.000
473.000	27.000
474.000	45.000
475.000	37.000
476.000	42.000
477.000	43.000
478.000	36.000
479.000	50.000
480.000	54.000
481.000	69.000
482.000	43.000
483.000	54.000
484.000	51.000
485.000	58.000
486.000	43.000
487.000	45.000
488.000	44.000
489.000	28.000
490.000	34.000
491.000	22.000
492.000	14.000
493.000	19.000
494.000	20.000
495.000	16.000
496.000	9.000
497.000	13.000
498.000	14.000
499.000	17.000
500.000	16.000
501.000	20.000
502.000	22.000
503.000	21.000
504.000	24.000
505.000	18.000
506.000	20.000
507.000	22.000
508.000	27.000
509.000	20.000
510.000	17.000
511.000	22.000
512.000	21.000
513.000	29.000
514.000	29.000
515.000	17.000
516.000	25.000
517.000	29.000
518.000	31.000
519.000	27.000
520.000	34.000
521.000	34.000
522.000	34.000
523.000	42.000
524.000	47.000
525.000	46.000
526.000	40.000
527.000	44.000
528.000	51.000
529.000	46.000
530.000	53.000
531.000	46.000
532.000	47.000
533.000	43.000
534.000	24.000
535.000	31.000
536.000	35.000
537.000	32.000
538.000	34.000
539.000	30.000
540.000	27.000
541.000	32.000
542.000	20.000
543.000	16.000
544.000	22.000
545.000	21.000
546.000	19.000
547.000	22.000
548.000	17.000
549.000	31.000
550.000	24.000
551.000	21.000
552.000	28.000
553.000	30.000
554.000	38.000
555.000	21.000
556.000	34.000
557.000	31.000
558.000	32.000
559.000	23.000
560.000	47.000
561.000	25.000
562.000	39.000
563.000	33.000
564.000	50.000
565.000	49.000
566.000	54.000
567.000	71.000
568.000	66.000
569.000	90.000
570.000	110.000
571.000	120.000
572.000	122.000
573.000	137.000
574.000	146.000
575.000	163.000
576.000	153.000
577.000	155.000
578.000	136.000
579.000	122.000
580.000	134.000
581.000	127.000
582.000	114.000
583.000	101.000
584.000	74.000
585.000	71.000
586.000	64.000
587.000	56.000
588.000	45.000
589.000	41.000
590.000	49.000
591.000	29.000
592.000	51.000
593.000	37.000
594.000	41.000
595.000	41.000
596.000	31.000
597.000	41.000
598.000	46.000
599.000	39.000
600.000	45.000
601.000	40.000
602.000	48.000
603.000	54.000
604.000	49.000
605.000	54.000
606.000	88.000
607.000	101.000
608.000	133.000
609.000	197.000
610.000	277.000
611.000	372.000
612.000	576.000
613.000	751.000
614.000	1062.000
615.000	1376.000
616.000	1843.000
617.000	2280.000
618.000	2903.000
619.000	3561.000
620.000	4320.000
621.000	4838.000
622.000	5547.000
623.000	6037.000
624.000	6269.000
625.000	6414.000
626.000	6431.000
627.000	6127.000
628.000	5821.000
629.000	5139.000
630.000	4741.000
631.000	3976.000
632.000	3297.000
633.000	2583.000
634.000	2150.000
635.000	1656.000
636.000	1160.000
637.000	925.000
638.000	617.000
639.000	454.000
640.000	318.000
641.000	240.000
642.000	167.000
643.000	123.000
644.000	100.000
645.000	80.000
646.000	95.000
647.000	67.000
648.000	75.000
649.000	67.000
650.000	58.000
651.000	63.000
652.000	60.000
653.000	56.000
654.000	49.000
655.000	73.000
656.000	54.000
657.000	72.000
658.000	60.000
659.000	56.000
660.000	78.000
661.000	65.000
662.000	61.000
663.000	64.000
664.000	83.000
665.000	54.000
666.000	74.000
667.000	94.000
668.000	74.000
669.000	73.000
670.000	97.000
671.000	102.000
672.000	114.000
673.000	124.000
674.000	125.000
675.000	169.000
676.000	181.000
677.000	189.000
678.000	273.000
679.000	312.000
680.000	399.000
681.000	527.000
682.000	561.000
683.000	672.000
684.000	775.000
685.000	893.000
686.000	988.000
687.000	999.000
688.000	1016.000
689.000	1070.000
690.000	1046.000
691.000	984.000
692.000	974.000
693.000	888.000
694.000	819.000
695.000	695.000
696.000	618.000
697.000	499.000
698.000	397.000
699.000	333.000
700.000	273.000
701.000	228.000
702.000	171.000
703.000	152.000
704.000	127.000
705.000	109.000
706.000	83.000
707.000	67.000
708.000	64.000
709.000	72.000
710.000	71.000
711.000	63.000
712.000	65.000
713.000	66.000
714.000	61.000
715.000	64.000
716.000	78.000
717.000	77.000
718.000	83.000
719.000	96.000
720.000	77.000
721.000	73.000
722.000	88.000
723.000	104.000
724.000	97.000
725.000	97.000
726.000	92.000
727.000	104.000
728.000	102.000
729.000	103.000
730.000	95.000
731.000	91.000
732.000	87.000
733.000	101.000
734.000	97.000
735.000	82.000
736.000	82.000
737.000	98.000
738.000	78.000
739.000	78.000
740.000	80.000
741.000	88.000
742.000	83.000
743.000	69.000
744.000	69.000
745.000	70.000
746.000	87.000
747.000	63.000
748.000	76.000
749.000	66.000
750.000	63.000
751.000	90.000
752.000	68.000
753.000	60.000
754.000	78.000
755.000	84.000
756.000	83.000
757.000	59.000
758.000	69.000
759.000	71.000
760.000	78.000
761.000	74.000
762.000	89.000
763.000	75.000
764.000	76.000
765.000	74.000
766.000	83.000
767.000	80.000
768.000	98.000
769.000	70.000
770.000	90.000
771.000	86.000
772.000	90.000
773.000	91.000
774.000	79.000
775.000	105.000
776.000	103.000
777.000	105.000
778.000	114.000
779.000	114.000
780.000	118.000
781.000	108.000
782.000	135.000
783.000	121.000
784.000	120.000
785.000	136.000
786.000	153.000
787.000	145.000
788.000	138.000
789.000	138.000
790.000	163.000
791.000	131.000
792.000	142.000
793.000	160.000
794.000	143.000
795.000	151.000
796.000	142.000
797.000	163.000
798.000	165.000
799.000	154.000
800.000	164.000
801.000	153.000
802.000	151.000
803.000	190.000
804.000	170.000
805.000	134.000
806.000	156.000
807.000	176.000
808.000	191.000
809.000	175.000
810.000	182.000
811.000	198.000
812.000	211.000
813.000	256.000
814.000	288.000
815.000	262.000
816.000	307.000
817.000	269.000
818.000	294.000
819.000	332.000
820.000	285.000
821.000	345.000
822.000	297.000
823.000	278.000
824.000	266.000
825.000	268.000
826.000	231.000
827.000	238.000
828.000	187.000
829.000	171.000
830.000	188.000
831.000	164.000
832.000	145.000
833.000	140.000
834.000	143.000
835.000	140.000
836.000	146.000
837.000	128.000
838.000	151.000
839.000	143.000
840.000	133.000
841.000	153.000
842.000	144.000
843.000	139.000
844.000	166.000
845.000	148.000
846.000	146.000
847.000	132.000
848.000	144.000
849.000	129.000
850.000	129.000
851.000	136.000
852.000	131.000
853.000	150.000
854.000	132.000
855.000	151.000
856.000	122.000
857.000	130.000
858.000	119.000
859.000	121.000
860.000	122.000
861.000	128.000
862.000	138.000
863.000	118.000
864.000	126.000
865.000	120.000
866.000	109.000
867.000	116.000
868.000	104.000
869.000	143.000
870.000	127.000
871.000	130.000
872.000	122.000
873.000	129.000
874.000	134.000
875.000	115.000
876.000	116.000
877.000	121.000
878.000	133.000
879.000	138.000
880.000	106.000
881.000	103.000
882.000	105.000
883.000	141.000
884.000	119.000
885.000	146.000
886.000	124.000
887.000	123.000
888.000	121.000
889.000	129.000
890.000	153.000
891.000	134.000
892.000	151.000
893.000	131.000
894.000	134.000
895.000	140.000
896.000	163.000
897.000	169.000
898.000	147.000
899.000	157.000
900.000	165.000
901.000	164.000
902.000	170.000
903.000	161.000
904.000	146.000
905.000	148.000
906.000	169.000
907.000	160.000
908.000	146.000
909.000	200.000
910.000	178.000
911.000	152.000
912.000	193.000
913.000	158.000
914.000	161.000
915.000	167.000
916.000	186.000
917.000	186.000
918.000	187.000
919.000	173.000
920.000	183.000
921.000	177.000
922.000	211.000
923.000	178.000
924.000	194.000
925.000	202.000
926.000	207.000
927.000	218.000
928.000	224.000
929.000	209.000
930.000	237.000
931.000	217.000
932.000	210.000
933.000	227.000
934.000	246.000
935.000	248.000
936.000	251.000
937.000	278.000
938.000	251.000
939.000	262.000
940.000	261.000
941.000	312.000
942.000	271.000
943.000	290.000
944.000	291.000
945.000	266.000
946.000	274.000
947.000	265.000
948.000	276.000
949.000	244.000
950.000	234.000
951.000	220.000
952.000	237.000
953.000	224.000
954.000	210.000
955.000	224.000
956.000	219.000
957.000	210.000
958.000	196.000
959.000	192.000
960.000	203.000
961.000	222.000
962.000	196.000
963.000	179.000
964.000	199.000
965.000	169.000
966.000	207.000
967.000	196.000
968.000	185.000
969.000	202.000
970.000	213.000
971.000	191.000
972.000	197.000
973.000	199.000
974.000	203.000
975.000	213.000
976.000	196.000
977.000	204.000
978.000	179.000
979.000	196.000
980.000	168.000
981.000	178.000
982.000	159.000
983.000	177.000
984.000	180.000
985.000	177.000
986.000	154.000
987.000	182.000
988.000	135.000
989.000	160.000
990.000	170.000
991.000	141.000
992.000	127.000
993.000	177.000
994.000	131.000
995.000	145.000
996.000	158.000
997.000	175.000
998.000	155.000
999.000	159.000
1000.000	172.000
1001.000	140.000
1002.000	156.000
1003.000	149.000
1004.000	146.000
1005.000	141.000
1006.000	143.000
1007.000	157.000
1008.000	150.000
1009.000	164.000
1010.000	154.000
1011.000	190.000
1012.000	145.000
1013.000	136.000
1014.000	143.000
1015.000	135.000
1016.000	143.000
1017.000	150.000
1018.000	167.000
1019.000	156.000
1020.000	167.000
1021.000	182.000
1022.000	160.000
1023.000	172.000
1024.000	137.000
1025.000	156.000
1026.000	159.000
1027.000	153.000
1028.000	150.000
1029.000	162.000
1030.000	154.000
1031.000	175.000
1032.000	139.000
1033.000	154.000
1034.000	153.000
1035.000	164.000
1036.000	162.000
1037.000	152.000
1038.000	150.000
1039.000	155.000
1040.000	140.000
1041.000	159.000
1042.000	149.000
1043.000	179.000
1044.000	182.000
1045.000	162.000
1046.000	177.000
1047.000	162.000
1048.000	164.000
1049.000	173.000
1050.000	193.000
1051.000	162.000
1052.000	154.000
1053.000	191.000
1054.000	179.000
1055.000	179.000
1056.000	162.000
1057.000	161.000
1058.000	182.000
1059.000	159.000
1060.000	167.000
1061.000	186.000
1062.000	178.000
1063.000	178.000
1064.000	178.000
1065.000	157.000
1066.000	211.000
1067.000	167.000
1068.000	169.000
1069.000	162.000
1070.000	191.000
1071.000	179.000
1072.000	198.000
1073.000	188.000
1074.000	184.000
1075.000	201.000
1076.000	179.000
1077.000	150.000
1078.000	178.000
1079.000	154.000
1080.000	160.000
1081.000	169.000
1082.000	151.000
1083.000	183.000
1084.000	167.000
1085.000	167.000
1086.000	178.000
1087.000	188.000
1088.000	168.000
1089.000	160.000
1090.000	179.000
1091.000	164.000
1092.000	156.000
1093.000	181.000
1094.000	187.000
1095.000	174.000
1096.000	199.000
1097.000	215.000
1098.000	193.000
1099.000	172.000
1100.000	202.000
1101.000	187.000
1102.000	199.000
1103.000	180.000
1104.000	173.000
1105.000	186.000
1106.000	198.000
1107.000	180.000
1108.000	170.000
1109.000	192.000
1110.000	169.000
1111.000	184.000
1112.000	176.000
1113.000	185.000
1114.000	175.000
1115.000	207.000
1116.000	185.000
1117.000	177.000
1118.000	173.000
1119.000	165.000
1120.000	178.000
1121.000	157.000
1122.000	163.000
1123.000	176.000
1124.000	154.000
1125.000	149.000
1126.000	181.000
1127.000	184.000
1128.000	182.000
1129.000	178.000
1130.000	193.000
1131.000	186.000
1132.000	172.000
1133.000	184.000
1134.000	176.000
1135.000	188.000
1136.000	181.000
1137.000	174.000
1138.000	187.000
1139.000	180.000
1140.000	190.000
1141.000	202.000
1142.000	188.000
1143.000	198.000
1144.000	188.000
1145.000	164.000
1146.000	180.000
1147.000	191.000
1148.000	171.000
1149.000	177.000
1150.000	204.000
1151.000	208.000
1152.000	196.000
1153.000	230.000
1154.000	205.000
1155.000	194.000
