Date:	22-Sep-20		Time:	8:18 PM		Version no:	0.00		Project name:	55		Sample name:	222		Section name:	section		Position	742.540018	mm	E0	0.000000	keV	E1	1.000000	keV/channel	sample surface	6.492655	cm	Tube anode:	Mo		Tube voltage:	30	kV	Tube current:	30	mA	gain	15		std. database			resultfile	result		matrix element	11		sample thickness	1.000000		air passage	0.560000	cm	comments	in position		peaking_time	0.300000	m-sec	trigger_threshold	40.000000	V	mca_bin_width	2.000000	no:	number_mca_channels	2048.000000	no:	gap_time	2048.000000	m-sec	trigger_peaking_time	2048.000000	m-sec	GAINDAC	400		HIGHGAIN	400		TAURC	400		RCTAU	400		RCTAUFRAC	400		livetime	13.469006	seconds	runtime	15.000385	seconds	input_count_rate	46081.797591	cps	output_count_rate	41377.337982	cps	triggers	680562	seconds	events_in_run	605543	seconds	channel	content		1.000	0.000
2.000	0.000
3.000	0.000
4.000	0.000
5.000	0.000
6.000	0.000
7.000	0.000
8.000	0.000
9.000	0.000
10.000	0.000
11.000	0.000
12.000	0.000
13.000	0.000
14.000	0.000
15.000	0.000
16.000	0.000
17.000	0.000
18.000	0.000
19.000	0.000
20.000	0.000
21.000	0.000
22.000	0.000
23.000	0.000
24.000	0.000
25.000	0.000
26.000	0.000
27.000	0.000
28.000	0.000
29.000	0.000
30.000	0.000
31.000	0.000
32.000	2.000
33.000	0.000
34.000	0.000
35.000	0.000
36.000	0.000
37.000	0.000
38.000	2.000
39.000	0.000
40.000	2.000
41.000	3.000
42.000	0.000
43.000	0.000
44.000	0.000
45.000	0.000
46.000	0.000
47.000	1.000
48.000	0.000
49.000	1.000
50.000	3.000
51.000	1.000
52.000	1.000
53.000	1.000
54.000	5.000
55.000	7.000
56.000	3.000
57.000	13.000
58.000	15.000
59.000	17.000
60.000	21.000
61.000	29.000
62.000	32.000
63.000	23.000
64.000	37.000
65.000	28.000
66.000	24.000
67.000	25.000
68.000	29.000
69.000	30.000
70.000	26.000
71.000	26.000
72.000	15.000
73.000	18.000
74.000	23.000
75.000	28.000
76.000	25.000
77.000	25.000
78.000	26.000
79.000	29.000
80.000	37.000
81.000	25.000
82.000	20.000
83.000	26.000
84.000	23.000
85.000	30.000
86.000	29.000
87.000	32.000
88.000	32.000
89.000	23.000
90.000	33.000
91.000	30.000
92.000	26.000
93.000	31.000
94.000	26.000
95.000	16.000
96.000	20.000
97.000	20.000
98.000	19.000
99.000	25.000
100.000	21.000
101.000	23.000
102.000	22.000
103.000	26.000
104.000	24.000
105.000	23.000
106.000	20.000
107.000	18.000
108.000	23.000
109.000	14.000
110.000	13.000
111.000	25.000
112.000	20.000
113.000	11.000
114.000	18.000
115.000	14.000
116.000	19.000
117.000	18.000
118.000	14.000
119.000	14.000
120.000	9.000
121.000	14.000
122.000	24.000
123.000	21.000
124.000	16.000
125.000	15.000
126.000	17.000
127.000	14.000
128.000	16.000
129.000	18.000
130.000	20.000
131.000	13.000
132.000	15.000
133.000	17.000
134.000	19.000
135.000	15.000
136.000	16.000
137.000	14.000
138.000	14.000
139.000	16.000
140.000	12.000
141.000	20.000
142.000	16.000
143.000	20.000
144.000	23.000
145.000	23.000
146.000	25.000
147.000	14.000
148.000	21.000
149.000	21.000
150.000	17.000
151.000	14.000
152.000	19.000
153.000	16.000
154.000	10.000
155.000	21.000
156.000	12.000
157.000	16.000
158.000	17.000
159.000	14.000
160.000	11.000
161.000	16.000
162.000	10.000
163.000	14.000
164.000	15.000
165.000	17.000
166.000	34.000
167.000	32.000
168.000	44.000
169.000	49.000
170.000	51.000
171.000	49.000
172.000	49.000
173.000	48.000
174.000	57.000
175.000	41.000
176.000	30.000
177.000	33.000
178.000	26.000
179.000	28.000
180.000	30.000
181.000	28.000
182.000	37.000
183.000	49.000
184.000	72.000
185.000	73.000
186.000	85.000
187.000	164.000
188.000	171.000
189.000	193.000
190.000	228.000
191.000	208.000
192.000	230.000
193.000	218.000
194.000	174.000
195.000	131.000
196.000	93.000
197.000	89.000
198.000	61.000
199.000	48.000
200.000	25.000
201.000	22.000
202.000	13.000
203.000	21.000
204.000	12.000
205.000	20.000
206.000	11.000
207.000	14.000
208.000	19.000
209.000	15.000
210.000	18.000
211.000	13.000
212.000	18.000
213.000	20.000
214.000	16.000
215.000	15.000
216.000	18.000
217.000	26.000
218.000	42.000
219.000	38.000
220.000	39.000
221.000	36.000
222.000	49.000
223.000	40.000
224.000	52.000
225.000	55.000
226.000	38.000
227.000	35.000
228.000	32.000
229.000	23.000
230.000	31.000
231.000	18.000
232.000	15.000
233.000	21.000
234.000	17.000
235.000	6.000
236.000	18.000
237.000	12.000
238.000	20.000
239.000	8.000
240.000	24.000
241.000	5.000
242.000	20.000
243.000	9.000
244.000	15.000
245.000	5.000
246.000	30.000
247.000	16.000
248.000	25.000
249.000	37.000
250.000	57.000
251.000	54.000
252.000	101.000
253.000	107.000
254.000	154.000
255.000	166.000
256.000	137.000
257.000	163.000
258.000	189.000
259.000	159.000
260.000	129.000
261.000	117.000
262.000	84.000
263.000	93.000
264.000	62.000
265.000	44.000
266.000	31.000
267.000	25.000
268.000	16.000
269.000	19.000
270.000	16.000
271.000	24.000
272.000	28.000
273.000	22.000
274.000	37.000
275.000	29.000
276.000	29.000
277.000	19.000
278.000	22.000
279.000	31.000
280.000	33.000
281.000	22.000
282.000	36.000
283.000	39.000
284.000	34.000
285.000	42.000
286.000	40.000
287.000	54.000
288.000	51.000
289.000	58.000
290.000	62.000
291.000	55.000
292.000	56.000
293.000	47.000
294.000	44.000
295.000	38.000
296.000	40.000
297.000	22.000
298.000	24.000
299.000	21.000
300.000	23.000
301.000	17.000
302.000	18.000
303.000	24.000
304.000	17.000
305.000	18.000
306.000	31.000
307.000	24.000
308.000	24.000
309.000	23.000
310.000	27.000
311.000	32.000
312.000	37.000
313.000	29.000
314.000	42.000
315.000	54.000
316.000	73.000
317.000	91.000
318.000	117.000
319.000	165.000
320.000	175.000
321.000	205.000
322.000	269.000
323.000	275.000
324.000	256.000
325.000	267.000
326.000	271.000
327.000	250.000
328.000	234.000
329.000	196.000
330.000	160.000
331.000	115.000
332.000	79.000
333.000	60.000
334.000	45.000
335.000	42.000
336.000	34.000
337.000	39.000
338.000	38.000
339.000	34.000
340.000	38.000
341.000	45.000
342.000	66.000
343.000	80.000
344.000	86.000
345.000	130.000
346.000	178.000
347.000	281.000
348.000	393.000
349.000	717.000
350.000	1075.000
351.000	1751.000
352.000	2618.000
353.000	3721.000
354.000	5373.000
355.000	7278.000
356.000	9540.000
357.000	12017.000
358.000	14371.000
359.000	16261.000
360.000	17650.000
361.000	18593.000
362.000	18541.000
363.000	17248.000
364.000	15892.000
365.000	13462.000
366.000	11181.000
367.000	8854.000
368.000	6785.000
369.000	4738.000
370.000	3385.000
371.000	2054.000
372.000	1333.000
373.000	814.000
374.000	533.000
375.000	316.000
376.000	235.000
377.000	155.000
378.000	140.000
379.000	177.000
380.000	187.000
381.000	238.000
382.000	348.000
383.000	418.000
384.000	631.000
385.000	820.000
386.000	1160.000
387.000	1380.000
388.000	1721.000
389.000	2047.000
390.000	2409.000
391.000	2554.000
392.000	2645.000
393.000	2724.000
394.000	2678.000
395.000	2552.000
396.000	2261.000
397.000	1919.000
398.000	1602.000
399.000	1210.000
400.000	923.000
401.000	589.000
402.000	466.000
403.000	297.000
404.000	197.000
405.000	142.000
406.000	78.000
407.000	47.000
408.000	34.000
409.000	19.000
410.000	13.000
411.000	6.000
412.000	10.000
413.000	6.000
414.000	7.000
415.000	8.000
416.000	3.000
417.000	6.000
418.000	4.000
419.000	10.000
420.000	8.000
421.000	8.000
422.000	9.000
423.000	7.000
424.000	10.000
425.000	11.000
426.000	7.000
427.000	13.000
428.000	16.000
429.000	18.000
430.000	33.000
431.000	49.000
432.000	58.000
433.000	74.000
434.000	75.000
435.000	123.000
436.000	144.000
437.000	154.000
438.000	192.000
439.000	180.000
440.000	210.000
441.000	193.000
442.000	208.000
443.000	218.000
444.000	186.000
445.000	165.000
446.000	141.000
447.000	117.000
448.000	93.000
449.000	76.000
450.000	56.000
451.000	55.000
452.000	40.000
453.000	37.000
454.000	37.000
455.000	28.000
456.000	29.000
457.000	28.000
458.000	31.000
459.000	24.000
460.000	12.000
461.000	22.000
462.000	9.000
463.000	23.000
464.000	12.000
465.000	9.000
466.000	12.000
467.000	17.000
468.000	13.000
469.000	20.000
470.000	20.000
471.000	20.000
472.000	26.000
473.000	31.000
474.000	22.000
475.000	31.000
476.000	30.000
477.000	41.000
478.000	40.000
479.000	51.000
480.000	45.000
481.000	55.000
482.000	51.000
483.000	53.000
484.000	38.000
485.000	45.000
486.000	47.000
487.000	40.000
488.000	46.000
489.000	38.000
490.000	23.000
491.000	25.000
492.000	25.000
493.000	16.000
494.000	26.000
495.000	23.000
496.000	20.000
497.000	10.000
498.000	15.000
499.000	17.000
500.000	16.000
501.000	13.000
502.000	12.000
503.000	15.000
504.000	13.000
505.000	14.000
506.000	17.000
507.000	22.000
508.000	17.000
509.000	15.000
510.000	19.000
511.000	15.000
512.000	22.000
513.000	15.000
514.000	21.000
515.000	29.000
516.000	14.000
517.000	18.000
518.000	21.000
519.000	19.000
520.000	28.000
521.000	25.000
522.000	39.000
523.000	37.000
524.000	41.000
525.000	38.000
526.000	25.000
527.000	46.000
528.000	33.000
529.000	49.000
530.000	29.000
531.000	34.000
532.000	40.000
533.000	51.000
534.000	31.000
535.000	35.000
536.000	40.000
537.000	27.000
538.000	23.000
539.000	27.000
540.000	21.000
541.000	22.000
542.000	22.000
543.000	12.000
544.000	22.000
545.000	25.000
546.000	13.000
547.000	18.000
548.000	26.000
549.000	19.000
550.000	27.000
551.000	29.000
552.000	22.000
553.000	18.000
554.000	19.000
555.000	19.000
556.000	32.000
557.000	21.000
558.000	23.000
559.000	31.000
560.000	27.000
561.000	22.000
562.000	36.000
563.000	39.000
564.000	46.000
565.000	41.000
566.000	33.000
567.000	54.000
568.000	45.000
569.000	59.000
570.000	73.000
571.000	75.000
572.000	90.000
573.000	90.000
574.000	97.000
575.000	94.000
576.000	93.000
577.000	113.000
578.000	89.000
579.000	75.000
580.000	73.000
581.000	71.000
582.000	65.000
583.000	59.000
584.000	55.000
585.000	61.000
586.000	37.000
587.000	39.000
588.000	33.000
589.000	36.000
590.000	32.000
591.000	25.000
592.000	34.000
593.000	36.000
594.000	26.000
595.000	30.000
596.000	27.000
597.000	31.000
598.000	24.000
599.000	41.000
600.000	30.000
601.000	39.000
602.000	29.000
603.000	40.000
604.000	45.000
605.000	57.000
606.000	51.000
607.000	69.000
608.000	92.000
609.000	145.000
610.000	174.000
611.000	252.000
612.000	358.000
613.000	496.000
614.000	697.000
615.000	970.000
616.000	1244.000
617.000	1567.000
618.000	1952.000
619.000	2486.000
620.000	2921.000
621.000	3347.000
622.000	3665.000
623.000	4110.000
624.000	4300.000
625.000	4471.000
626.000	4582.000
627.000	4269.000
628.000	4039.000
629.000	3564.000
630.000	3249.000
631.000	2739.000
632.000	2280.000
633.000	1899.000
634.000	1428.000
635.000	1088.000
636.000	841.000
637.000	653.000
638.000	442.000
639.000	312.000
640.000	216.000
641.000	164.000
642.000	136.000
643.000	87.000
644.000	87.000
645.000	76.000
646.000	63.000
647.000	54.000
648.000	47.000
649.000	67.000
650.000	62.000
651.000	63.000
652.000	64.000
653.000	61.000
654.000	62.000
655.000	60.000
656.000	61.000
657.000	57.000
658.000	54.000
659.000	51.000
660.000	50.000
661.000	50.000
662.000	47.000
663.000	57.000
664.000	67.000
665.000	60.000
666.000	67.000
667.000	63.000
668.000	59.000
669.000	78.000
670.000	67.000
671.000	74.000
672.000	94.000
673.000	88.000
674.000	91.000
675.000	119.000
676.000	151.000
677.000	184.000
678.000	190.000
679.000	231.000
680.000	300.000
681.000	342.000
682.000	410.000
683.000	462.000
684.000	588.000
685.000	589.000
686.000	663.000
687.000	700.000
688.000	754.000
689.000	768.000
690.000	733.000
691.000	702.000
692.000	662.000
693.000	608.000
694.000	573.000
695.000	485.000
696.000	418.000
697.000	330.000
698.000	290.000
699.000	230.000
700.000	189.000
701.000	189.000
702.000	106.000
703.000	99.000
704.000	91.000
705.000	89.000
706.000	83.000
707.000	62.000
708.000	64.000
709.000	66.000
710.000	57.000
711.000	67.000
712.000	54.000
713.000	64.000
714.000	59.000
715.000	66.000
716.000	64.000
717.000	66.000
718.000	71.000
719.000	59.000
720.000	84.000
721.000	53.000
722.000	65.000
723.000	73.000
724.000	92.000
725.000	106.000
726.000	84.000
727.000	83.000
728.000	91.000
729.000	75.000
730.000	81.000
731.000	77.000
732.000	72.000
733.000	71.000
734.000	75.000
735.000	89.000
736.000	84.000
737.000	77.000
738.000	79.000
739.000	70.000
740.000	52.000
741.000	74.000
742.000	75.000
743.000	72.000
744.000	64.000
745.000	76.000
746.000	72.000
747.000	58.000
748.000	67.000
749.000	74.000
750.000	75.000
751.000	72.000
752.000	77.000
753.000	75.000
754.000	77.000
755.000	68.000
756.000	61.000
757.000	92.000
758.000	73.000
759.000	55.000
760.000	66.000
761.000	76.000
762.000	58.000
763.000	68.000
764.000	56.000
765.000	77.000
766.000	94.000
767.000	81.000
768.000	58.000
769.000	74.000
770.000	64.000
771.000	64.000
772.000	74.000
773.000	82.000
774.000	82.000
775.000	98.000
776.000	82.000
777.000	101.000
778.000	115.000
779.000	94.000
780.000	102.000
781.000	108.000
782.000	104.000
783.000	136.000
784.000	105.000
785.000	132.000
786.000	114.000
787.000	133.000
788.000	150.000
789.000	137.000
790.000	129.000
791.000	144.000
792.000	146.000
793.000	149.000
794.000	159.000
795.000	135.000
796.000	147.000
797.000	131.000
798.000	140.000
799.000	148.000
800.000	127.000
801.000	158.000
802.000	125.000
803.000	151.000
804.000	136.000
805.000	123.000
806.000	164.000
807.000	159.000
808.000	194.000
809.000	168.000
810.000	172.000
811.000	223.000
812.000	179.000
813.000	232.000
814.000	268.000
815.000	266.000
816.000	284.000
817.000	268.000
818.000	257.000
819.000	266.000
820.000	294.000
821.000	272.000
822.000	251.000
823.000	212.000
824.000	239.000
825.000	238.000
826.000	175.000
827.000	217.000
828.000	209.000
829.000	165.000
830.000	168.000
831.000	137.000
832.000	111.000
833.000	129.000
834.000	144.000
835.000	133.000
836.000	118.000
837.000	119.000
838.000	128.000
839.000	128.000
840.000	115.000
841.000	138.000
842.000	134.000
843.000	131.000
844.000	144.000
845.000	131.000
846.000	119.000
847.000	108.000
848.000	100.000
849.000	111.000
850.000	112.000
851.000	122.000
852.000	120.000
853.000	104.000
854.000	107.000
855.000	129.000
856.000	110.000
857.000	108.000
858.000	113.000
859.000	126.000
860.000	116.000
861.000	113.000
862.000	102.000
863.000	109.000
864.000	120.000
865.000	119.000
866.000	115.000
867.000	117.000
868.000	104.000
869.000	125.000
870.000	112.000
871.000	108.000
872.000	135.000
873.000	102.000
874.000	122.000
875.000	109.000
876.000	104.000
877.000	117.000
878.000	135.000
879.000	113.000
880.000	108.000
881.000	124.000
882.000	114.000
883.000	119.000
884.000	116.000
885.000	111.000
886.000	111.000
887.000	120.000
888.000	110.000
889.000	109.000
890.000	117.000
891.000	128.000
892.000	134.000
893.000	140.000
894.000	125.000
895.000	117.000
896.000	115.000
897.000	111.000
898.000	146.000
899.000	123.000
900.000	153.000
901.000	132.000
902.000	136.000
903.000	144.000
904.000	139.000
905.000	126.000
906.000	159.000
907.000	169.000
908.000	142.000
909.000	173.000
910.000	145.000
911.000	159.000
912.000	146.000
913.000	174.000
914.000	149.000
915.000	152.000
916.000	160.000
917.000	164.000
918.000	158.000
919.000	174.000
920.000	170.000
921.000	177.000
922.000	189.000
923.000	174.000
924.000	182.000
925.000	177.000
926.000	166.000
927.000	168.000
928.000	189.000
929.000	201.000
930.000	183.000
931.000	215.000
932.000	201.000
933.000	226.000
934.000	191.000
935.000	185.000
936.000	214.000
937.000	215.000
938.000	201.000
939.000	243.000
940.000	243.000
941.000	258.000
942.000	246.000
943.000	235.000
944.000	273.000
945.000	264.000
946.000	247.000
947.000	218.000
948.000	254.000
949.000	233.000
950.000	212.000
951.000	235.000
952.000	204.000
953.000	197.000
954.000	183.000
955.000	208.000
956.000	179.000
957.000	178.000
958.000	177.000
959.000	172.000
960.000	184.000
961.000	160.000
962.000	181.000
963.000	178.000
964.000	192.000
965.000	171.000
966.000	179.000
967.000	188.000
968.000	197.000
969.000	181.000
970.000	190.000
971.000	153.000
972.000	186.000
973.000	167.000
974.000	182.000
975.000	164.000
976.000	163.000
977.000	181.000
978.000	198.000
979.000	161.000
980.000	171.000
981.000	154.000
982.000	149.000
983.000	167.000
984.000	157.000
985.000	163.000
986.000	146.000
987.000	135.000
988.000	144.000
989.000	157.000
990.000	125.000
991.000	146.000
992.000	151.000
993.000	147.000
994.000	129.000
995.000	153.000
996.000	141.000
997.000	128.000
998.000	124.000
999.000	138.000
1000.000	131.000
1001.000	135.000
1002.000	116.000
1003.000	132.000
1004.000	128.000
1005.000	142.000
1006.000	146.000
1007.000	128.000
1008.000	136.000
1009.000	143.000
1010.000	129.000
1011.000	129.000
1012.000	112.000
1013.000	137.000
1014.000	119.000
1015.000	138.000
1016.000	125.000
1017.000	133.000
1018.000	126.000
1019.000	147.000
1020.000	144.000
1021.000	124.000
1022.000	145.000
1023.000	141.000
1024.000	120.000
1025.000	139.000
1026.000	142.000
1027.000	146.000
1028.000	141.000
1029.000	155.000
1030.000	144.000
1031.000	154.000
1032.000	154.000
1033.000	135.000
1034.000	122.000
1035.000	137.000
1036.000	121.000
1037.000	156.000
1038.000	136.000
1039.000	128.000
1040.000	146.000
1041.000	152.000
1042.000	145.000
1043.000	145.000
1044.000	156.000
1045.000	163.000
1046.000	128.000
1047.000	135.000
1048.000	144.000
1049.000	156.000
1050.000	153.000
1051.000	144.000
1052.000	151.000
1053.000	161.000
1054.000	155.000
1055.000	155.000
1056.000	168.000
1057.000	151.000
1058.000	145.000
1059.000	161.000
1060.000	147.000
1061.000	184.000
1062.000	177.000
1063.000	159.000
1064.000	165.000
1065.000	147.000
1066.000	137.000
1067.000	138.000
1068.000	164.000
1069.000	162.000
1070.000	138.000
1071.000	154.000
1072.000	171.000
1073.000	143.000
1074.000	160.000
1075.000	136.000
1076.000	140.000
1077.000	165.000
1078.000	164.000
1079.000	176.000
1080.000	145.000
1081.000	178.000
1082.000	159.000
1083.000	158.000
1084.000	163.000
1085.000	148.000
1086.000	152.000
1087.000	172.000
1088.000	142.000
1089.000	168.000
1090.000	162.000
1091.000	166.000
1092.000	166.000
1093.000	144.000
1094.000	185.000
1095.000	181.000
1096.000	156.000
1097.000	137.000
1098.000	168.000
1099.000	150.000
1100.000	172.000
1101.000	189.000
1102.000	184.000
1103.000	154.000
1104.000	179.000
1105.000	156.000
1106.000	155.000
1107.000	172.000
1108.000	178.000
1109.000	169.000
1110.000	166.000
1111.000	142.000
1112.000	160.000
1113.000	154.000
1114.000	149.000
1115.000	159.000
1116.000	153.000
1117.000	165.000
1118.000	141.000
1119.000	162.000
1120.000	162.000
1121.000	142.000
1122.000	141.000
1123.000	151.000
1124.000	171.000
1125.000	157.000
1126.000	144.000
1127.000	146.000
1128.000	163.000
1129.000	184.000
1130.000	153.000
1131.000	154.000
1132.000	148.000
1133.000	154.000
1134.000	166.000
1135.000	151.000
1136.000	167.000
1137.000	179.000
1138.000	174.000
1139.000	160.000
1140.000	164.000
1141.000	174.000
1142.000	163.000
1143.000	137.000
1144.000	163.000
1145.000	132.000
1146.000	174.000
1147.000	147.000
1148.000	160.000
1149.000	162.000
1150.000	163.000
1151.000	181.000
1152.000	162.000
1153.000	192.000
1154.000	174.000
1155.000	187.000
1156.000	192.000
1157.000	176.000
1158.000	177.000
