Date:	22-Sep-20		Time:	7:45 PM		Version no:	0.00		Project name:	55		Sample name:	222		Section name:	section		Position	619.540018	mm	E0	0.000000	keV	E1	1.000000	keV/channel	sample surface	6.370297	cm	Tube anode:	Mo		Tube voltage:	30	kV	Tube current:	30	mA	gain	15		std. database			resultfile	result		matrix element	11		sample thickness	1.000000		air passage	0.560000	cm	comments	in position		peaking_time	0.300000	m-sec	trigger_threshold	40.000000	V	mca_bin_width	2.000000	no:	number_mca_channels	2048.000000	no:	gap_time	2048.000000	m-sec	trigger_peaking_time	2048.000000	m-sec	GAINDAC	400		HIGHGAIN	400		TAURC	400		RCTAU	400		RCTAUFRAC	400		livetime	13.478097	seconds	runtime	15.000336	seconds	input_count_rate	45017.407267	cps	output_count_rate	40449.025927	cps	triggers	665042	seconds	events_in_run	591631	seconds	channel	content		1.000	0.000
2.000	0.000
3.000	0.000
4.000	0.000
5.000	0.000
6.000	0.000
7.000	0.000
8.000	0.000
9.000	0.000
10.000	0.000
11.000	0.000
12.000	0.000
13.000	0.000
14.000	0.000
15.000	0.000
16.000	0.000
17.000	0.000
18.000	0.000
19.000	0.000
20.000	0.000
21.000	0.000
22.000	0.000
23.000	0.000
24.000	0.000
25.000	0.000
26.000	0.000
27.000	0.000
28.000	0.000
29.000	0.000
30.000	0.000
31.000	0.000
32.000	0.000
33.000	1.000
34.000	0.000
35.000	0.000
36.000	0.000
37.000	0.000
38.000	0.000
39.000	0.000
40.000	0.000
41.000	0.000
42.000	0.000
43.000	0.000
44.000	1.000
45.000	2.000
46.000	0.000
47.000	2.000
48.000	1.000
49.000	1.000
50.000	0.000
51.000	4.000
52.000	4.000
53.000	2.000
54.000	4.000
55.000	5.000
56.000	10.000
57.000	8.000
58.000	13.000
59.000	17.000
60.000	20.000
61.000	23.000
62.000	23.000
63.000	37.000
64.000	33.000
65.000	20.000
66.000	30.000
67.000	22.000
68.000	27.000
69.000	24.000
70.000	27.000
71.000	24.000
72.000	30.000
73.000	25.000
74.000	28.000
75.000	22.000
76.000	29.000
77.000	28.000
78.000	29.000
79.000	30.000
80.000	34.000
81.000	24.000
82.000	23.000
83.000	25.000
84.000	26.000
85.000	25.000
86.000	30.000
87.000	18.000
88.000	19.000
89.000	22.000
90.000	14.000
91.000	23.000
92.000	20.000
93.000	22.000
94.000	18.000
95.000	15.000
96.000	18.000
97.000	13.000
98.000	20.000
99.000	29.000
100.000	33.000
101.000	21.000
102.000	25.000
103.000	18.000
104.000	22.000
105.000	17.000
106.000	15.000
107.000	13.000
108.000	17.000
109.000	20.000
110.000	19.000
111.000	13.000
112.000	19.000
113.000	19.000
114.000	13.000
115.000	21.000
116.000	11.000
117.000	10.000
118.000	12.000
119.000	15.000
120.000	12.000
121.000	10.000
122.000	19.000
123.000	14.000
124.000	19.000
125.000	19.000
126.000	14.000
127.000	21.000
128.000	17.000
129.000	10.000
130.000	16.000
131.000	18.000
132.000	9.000
133.000	12.000
134.000	8.000
135.000	20.000
136.000	18.000
137.000	10.000
138.000	18.000
139.000	11.000
140.000	17.000
141.000	17.000
142.000	27.000
143.000	30.000
144.000	22.000
145.000	38.000
146.000	25.000
147.000	28.000
148.000	23.000
149.000	22.000
150.000	22.000
151.000	25.000
152.000	20.000
153.000	11.000
154.000	22.000
155.000	18.000
156.000	19.000
157.000	11.000
158.000	19.000
159.000	14.000
160.000	11.000
161.000	10.000
162.000	14.000
163.000	21.000
164.000	17.000
165.000	23.000
166.000	32.000
167.000	33.000
168.000	36.000
169.000	66.000
170.000	74.000
171.000	61.000
172.000	60.000
173.000	45.000
174.000	42.000
175.000	43.000
176.000	48.000
177.000	32.000
178.000	26.000
179.000	20.000
180.000	30.000
181.000	36.000
182.000	35.000
183.000	45.000
184.000	74.000
185.000	74.000
186.000	107.000
187.000	122.000
188.000	149.000
189.000	180.000
190.000	203.000
191.000	227.000
192.000	196.000
193.000	180.000
194.000	168.000
195.000	113.000
196.000	119.000
197.000	90.000
198.000	45.000
199.000	31.000
200.000	20.000
201.000	22.000
202.000	17.000
203.000	22.000
204.000	11.000
205.000	14.000
206.000	7.000
207.000	16.000
208.000	15.000
209.000	19.000
210.000	14.000
211.000	17.000
212.000	13.000
213.000	11.000
214.000	19.000
215.000	13.000
216.000	23.000
217.000	29.000
218.000	34.000
219.000	33.000
220.000	36.000
221.000	42.000
222.000	46.000
223.000	42.000
224.000	36.000
225.000	25.000
226.000	37.000
227.000	31.000
228.000	34.000
229.000	32.000
230.000	13.000
231.000	13.000
232.000	13.000
233.000	13.000
234.000	11.000
235.000	15.000
236.000	9.000
237.000	11.000
238.000	17.000
239.000	8.000
240.000	10.000
241.000	9.000
242.000	15.000
243.000	8.000
244.000	15.000
245.000	20.000
246.000	20.000
247.000	17.000
248.000	25.000
249.000	40.000
250.000	53.000
251.000	62.000
252.000	81.000
253.000	98.000
254.000	120.000
255.000	141.000
256.000	137.000
257.000	155.000
258.000	158.000
259.000	139.000
260.000	123.000
261.000	88.000
262.000	74.000
263.000	47.000
264.000	40.000
265.000	39.000
266.000	29.000
267.000	18.000
268.000	24.000
269.000	24.000
270.000	25.000
271.000	21.000
272.000	19.000
273.000	40.000
274.000	34.000
275.000	35.000
276.000	36.000
277.000	23.000
278.000	30.000
279.000	33.000
280.000	34.000
281.000	29.000
282.000	37.000
283.000	34.000
284.000	29.000
285.000	36.000
286.000	39.000
287.000	54.000
288.000	54.000
289.000	46.000
290.000	59.000
291.000	78.000
292.000	71.000
293.000	51.000
294.000	36.000
295.000	35.000
296.000	23.000
297.000	27.000
298.000	30.000
299.000	19.000
300.000	18.000
301.000	19.000
302.000	12.000
303.000	23.000
304.000	13.000
305.000	29.000
306.000	21.000
307.000	21.000
308.000	37.000
309.000	22.000
310.000	24.000
311.000	22.000
312.000	27.000
313.000	48.000
314.000	42.000
315.000	64.000
316.000	82.000
317.000	89.000
318.000	121.000
319.000	142.000
320.000	179.000
321.000	233.000
322.000	291.000
323.000	282.000
324.000	282.000
325.000	335.000
326.000	308.000
327.000	256.000
328.000	257.000
329.000	214.000
330.000	135.000
331.000	125.000
332.000	97.000
333.000	67.000
334.000	44.000
335.000	31.000
336.000	41.000
337.000	33.000
338.000	22.000
339.000	40.000
340.000	29.000
341.000	46.000
342.000	63.000
343.000	73.000
344.000	70.000
345.000	126.000
346.000	187.000
347.000	245.000
348.000	394.000
349.000	622.000
350.000	942.000
351.000	1435.000
352.000	2307.000
353.000	3385.000
354.000	4880.000
355.000	6663.000
356.000	8493.000
357.000	10832.000
358.000	12820.000
359.000	14780.000
360.000	16143.000
361.000	16958.000
362.000	16714.000
363.000	15977.000
364.000	14163.000
365.000	12281.000
366.000	9975.000
367.000	8058.000
368.000	5906.000
369.000	4313.000
370.000	2992.000
371.000	1908.000
372.000	1280.000
373.000	791.000
374.000	475.000
375.000	282.000
376.000	189.000
377.000	173.000
378.000	163.000
379.000	142.000
380.000	188.000
381.000	217.000
382.000	319.000
383.000	445.000
384.000	548.000
385.000	743.000
386.000	987.000
387.000	1291.000
388.000	1654.000
389.000	1836.000
390.000	2185.000
391.000	2390.000
392.000	2551.000
393.000	2576.000
394.000	2434.000
395.000	2295.000
396.000	2028.000
397.000	1725.000
398.000	1442.000
399.000	1139.000
400.000	783.000
401.000	600.000
402.000	385.000
403.000	258.000
404.000	188.000
405.000	109.000
406.000	80.000
407.000	45.000
408.000	29.000
409.000	20.000
410.000	16.000
411.000	7.000
412.000	10.000
413.000	6.000
414.000	14.000
415.000	3.000
416.000	8.000
417.000	7.000
418.000	8.000
419.000	6.000
420.000	10.000
421.000	8.000
422.000	10.000
423.000	11.000
424.000	8.000
425.000	11.000
426.000	8.000
427.000	20.000
428.000	15.000
429.000	27.000
430.000	24.000
431.000	40.000
432.000	56.000
433.000	86.000
434.000	95.000
435.000	125.000
436.000	164.000
437.000	179.000
438.000	247.000
439.000	219.000
440.000	245.000
441.000	249.000
442.000	276.000
443.000	233.000
444.000	194.000
445.000	181.000
446.000	168.000
447.000	123.000
448.000	117.000
449.000	100.000
450.000	72.000
451.000	57.000
452.000	63.000
453.000	53.000
454.000	44.000
455.000	33.000
456.000	29.000
457.000	35.000
458.000	32.000
459.000	25.000
460.000	26.000
461.000	24.000
462.000	20.000
463.000	26.000
464.000	16.000
465.000	21.000
466.000	14.000
467.000	17.000
468.000	22.000
469.000	25.000
470.000	26.000
471.000	32.000
472.000	25.000
473.000	29.000
474.000	27.000
475.000	38.000
476.000	41.000
477.000	35.000
478.000	54.000
479.000	58.000
480.000	53.000
481.000	47.000
482.000	57.000
483.000	59.000
484.000	51.000
485.000	49.000
486.000	55.000
487.000	39.000
488.000	35.000
489.000	43.000
490.000	26.000
491.000	19.000
492.000	18.000
493.000	15.000
494.000	20.000
495.000	18.000
496.000	16.000
497.000	18.000
498.000	15.000
499.000	19.000
500.000	22.000
501.000	16.000
502.000	16.000
503.000	15.000
504.000	18.000
505.000	23.000
506.000	19.000
507.000	24.000
508.000	14.000
509.000	21.000
510.000	13.000
511.000	25.000
512.000	22.000
513.000	15.000
514.000	28.000
515.000	27.000
516.000	24.000
517.000	22.000
518.000	24.000
519.000	26.000
520.000	25.000
521.000	45.000
522.000	34.000
523.000	32.000
524.000	31.000
525.000	35.000
526.000	34.000
527.000	40.000
528.000	41.000
529.000	51.000
530.000	42.000
531.000	39.000
532.000	38.000
533.000	37.000
534.000	31.000
535.000	36.000
536.000	35.000
537.000	18.000
538.000	23.000
539.000	33.000
540.000	32.000
541.000	22.000
542.000	32.000
543.000	32.000
544.000	20.000
545.000	18.000
546.000	12.000
547.000	25.000
548.000	19.000
549.000	24.000
550.000	22.000
551.000	25.000
552.000	23.000
553.000	22.000
554.000	20.000
555.000	20.000
556.000	14.000
557.000	36.000
558.000	27.000
559.000	29.000
560.000	27.000
561.000	28.000
562.000	30.000
563.000	25.000
564.000	38.000
565.000	35.000
566.000	49.000
567.000	49.000
568.000	78.000
569.000	52.000
570.000	74.000
571.000	76.000
572.000	98.000
573.000	111.000
574.000	105.000
575.000	124.000
576.000	119.000
577.000	102.000
578.000	131.000
579.000	103.000
580.000	91.000
581.000	93.000
582.000	67.000
583.000	55.000
584.000	72.000
585.000	56.000
586.000	56.000
587.000	39.000
588.000	43.000
589.000	36.000
590.000	27.000
591.000	33.000
592.000	30.000
593.000	23.000
594.000	26.000
595.000	40.000
596.000	28.000
597.000	38.000
598.000	29.000
599.000	37.000
600.000	42.000
601.000	27.000
602.000	30.000
603.000	36.000
604.000	66.000
605.000	56.000
606.000	78.000
607.000	85.000
608.000	113.000
609.000	152.000
610.000	215.000
611.000	284.000
612.000	422.000
613.000	610.000
614.000	797.000
615.000	1156.000
616.000	1462.000
617.000	1921.000
618.000	2418.000
619.000	2961.000
620.000	3590.000
621.000	4157.000
622.000	4602.000
623.000	5037.000
624.000	5179.000
625.000	5405.000
626.000	5444.000
627.000	5216.000
628.000	4836.000
629.000	4526.000
630.000	3945.000
631.000	3369.000
632.000	2805.000
633.000	2130.000
634.000	1765.000
635.000	1378.000
636.000	1023.000
637.000	765.000
638.000	553.000
639.000	377.000
640.000	286.000
641.000	185.000
642.000	145.000
643.000	111.000
644.000	108.000
645.000	81.000
646.000	79.000
647.000	67.000
648.000	65.000
649.000	61.000
650.000	63.000
651.000	58.000
652.000	56.000
653.000	55.000
654.000	51.000
655.000	45.000
656.000	47.000
657.000	50.000
658.000	43.000
659.000	51.000
660.000	65.000
661.000	52.000
662.000	63.000
663.000	53.000
664.000	63.000
665.000	71.000
666.000	65.000
667.000	71.000
668.000	70.000
669.000	74.000
670.000	82.000
671.000	90.000
672.000	90.000
673.000	123.000
674.000	115.000
675.000	144.000
676.000	155.000
677.000	196.000
678.000	251.000
679.000	274.000
680.000	330.000
681.000	442.000
682.000	489.000
683.000	546.000
684.000	651.000
685.000	738.000
686.000	819.000
687.000	861.000
688.000	950.000
689.000	895.000
690.000	912.000
691.000	902.000
692.000	851.000
693.000	740.000
694.000	660.000
695.000	596.000
696.000	520.000
697.000	412.000
698.000	370.000
699.000	305.000
700.000	201.000
701.000	190.000
702.000	140.000
703.000	105.000
704.000	93.000
705.000	84.000
706.000	80.000
707.000	76.000
708.000	60.000
709.000	54.000
710.000	55.000
711.000	53.000
712.000	63.000
713.000	62.000
714.000	55.000
715.000	55.000
716.000	61.000
717.000	59.000
718.000	65.000
719.000	61.000
720.000	68.000
721.000	68.000
722.000	65.000
723.000	67.000
724.000	75.000
725.000	82.000
726.000	85.000
727.000	79.000
728.000	85.000
729.000	87.000
730.000	87.000
731.000	82.000
732.000	95.000
733.000	82.000
734.000	92.000
735.000	79.000
736.000	72.000
737.000	66.000
738.000	78.000
739.000	70.000
740.000	65.000
741.000	64.000
742.000	73.000
743.000	51.000
744.000	68.000
745.000	63.000
746.000	65.000
747.000	65.000
748.000	72.000
749.000	67.000
750.000	58.000
751.000	72.000
752.000	73.000
753.000	51.000
754.000	68.000
755.000	58.000
756.000	69.000
757.000	62.000
758.000	78.000
759.000	59.000
760.000	72.000
761.000	63.000
762.000	75.000
763.000	53.000
764.000	67.000
765.000	54.000
766.000	61.000
767.000	65.000
768.000	81.000
769.000	69.000
770.000	82.000
771.000	67.000
772.000	80.000
773.000	85.000
774.000	79.000
775.000	86.000
776.000	82.000
777.000	90.000
778.000	90.000
779.000	91.000
780.000	104.000
781.000	91.000
782.000	109.000
783.000	118.000
784.000	108.000
785.000	126.000
786.000	132.000
787.000	119.000
788.000	146.000
789.000	124.000
790.000	112.000
791.000	127.000
792.000	123.000
793.000	138.000
794.000	125.000
795.000	153.000
796.000	144.000
797.000	145.000
798.000	137.000
799.000	132.000
800.000	134.000
801.000	129.000
802.000	124.000
803.000	130.000
804.000	157.000
805.000	120.000
806.000	153.000
807.000	155.000
808.000	174.000
809.000	161.000
810.000	193.000
811.000	170.000
812.000	180.000
813.000	228.000
814.000	208.000
815.000	245.000
816.000	214.000
817.000	251.000
818.000	250.000
819.000	284.000
820.000	282.000
821.000	248.000
822.000	274.000
823.000	254.000
824.000	219.000
825.000	197.000
826.000	205.000
827.000	183.000
828.000	162.000
829.000	165.000
830.000	159.000
831.000	119.000
832.000	144.000
833.000	141.000
834.000	124.000
835.000	134.000
836.000	125.000
837.000	132.000
838.000	137.000
839.000	100.000
840.000	137.000
841.000	128.000
842.000	132.000
843.000	149.000
844.000	137.000
845.000	126.000
846.000	136.000
847.000	130.000
848.000	127.000
849.000	107.000
850.000	123.000
851.000	108.000
852.000	124.000
853.000	119.000
854.000	132.000
855.000	110.000
856.000	99.000
857.000	96.000
858.000	106.000
859.000	108.000
860.000	113.000
861.000	93.000
862.000	115.000
863.000	122.000
864.000	105.000
865.000	121.000
866.000	94.000
867.000	102.000
868.000	107.000
869.000	108.000
870.000	97.000
871.000	106.000
872.000	113.000
873.000	110.000
874.000	118.000
875.000	126.000
876.000	134.000
877.000	108.000
878.000	109.000
879.000	100.000
880.000	94.000
881.000	106.000
882.000	104.000
883.000	103.000
884.000	107.000
885.000	128.000
886.000	88.000
887.000	119.000
888.000	105.000
889.000	135.000
890.000	134.000
891.000	106.000
892.000	125.000
893.000	102.000
894.000	110.000
895.000	127.000
896.000	118.000
897.000	126.000
898.000	140.000
899.000	134.000
900.000	152.000
901.000	138.000
902.000	155.000
903.000	150.000
904.000	149.000
905.000	146.000
906.000	160.000
907.000	166.000
908.000	135.000
909.000	147.000
910.000	150.000
911.000	140.000
912.000	162.000
913.000	156.000
914.000	172.000
915.000	169.000
916.000	154.000
917.000	171.000
918.000	155.000
919.000	161.000
920.000	169.000
921.000	166.000
922.000	165.000
923.000	153.000
924.000	144.000
925.000	183.000
926.000	173.000
927.000	178.000
928.000	169.000
929.000	180.000
930.000	187.000
931.000	215.000
932.000	187.000
933.000	204.000
934.000	206.000
935.000	227.000
936.000	225.000
937.000	204.000
938.000	209.000
939.000	215.000
940.000	247.000
941.000	231.000
942.000	267.000
943.000	242.000
944.000	260.000
945.000	242.000
946.000	256.000
947.000	208.000
948.000	232.000
949.000	229.000
950.000	230.000
951.000	221.000
952.000	192.000
953.000	199.000
954.000	199.000
955.000	176.000
956.000	173.000
957.000	176.000
958.000	176.000
959.000	155.000
960.000	186.000
961.000	175.000
962.000	161.000
963.000	201.000
964.000	172.000
965.000	169.000
966.000	193.000
967.000	152.000
968.000	182.000
969.000	167.000
970.000	179.000
971.000	160.000
972.000	162.000
973.000	180.000
974.000	170.000
975.000	158.000
976.000	173.000
977.000	164.000
978.000	145.000
979.000	163.000
980.000	158.000
981.000	151.000
982.000	148.000
983.000	144.000
984.000	134.000
985.000	148.000
986.000	158.000
987.000	151.000
988.000	155.000
989.000	137.000
990.000	130.000
991.000	138.000
992.000	146.000
993.000	140.000
994.000	135.000
995.000	125.000
996.000	104.000
997.000	134.000
998.000	134.000
999.000	126.000
1000.000	125.000
1001.000	107.000
1002.000	123.000
1003.000	151.000
1004.000	119.000
1005.000	164.000
1006.000	131.000
1007.000	121.000
1008.000	129.000
1009.000	138.000
1010.000	142.000
1011.000	126.000
1012.000	126.000
1013.000	131.000
1014.000	119.000
1015.000	130.000
1016.000	141.000
1017.000	134.000
1018.000	125.000
1019.000	132.000
1020.000	132.000
1021.000	132.000
1022.000	137.000
1023.000	139.000
1024.000	142.000
1025.000	144.000
1026.000	130.000
1027.000	132.000
1028.000	127.000
1029.000	125.000
1030.000	122.000
1031.000	142.000
1032.000	139.000
1033.000	129.000
1034.000	155.000
1035.000	135.000
1036.000	134.000
1037.000	133.000
1038.000	142.000
1039.000	125.000
1040.000	132.000
1041.000	132.000
1042.000	131.000
1043.000	117.000
1044.000	155.000
1045.000	131.000
1046.000	165.000
1047.000	146.000
1048.000	135.000
1049.000	139.000
1050.000	159.000
1051.000	135.000
1052.000	144.000
1053.000	153.000
1054.000	166.000
1055.000	130.000
1056.000	156.000
1057.000	142.000
1058.000	153.000
1059.000	164.000
1060.000	156.000
1061.000	151.000
1062.000	144.000
1063.000	168.000
1064.000	157.000
1065.000	157.000
1066.000	137.000
1067.000	161.000
1068.000	144.000
1069.000	152.000
1070.000	142.000
1071.000	140.000
1072.000	169.000
1073.000	166.000
1074.000	127.000
1075.000	139.000
1076.000	149.000
1077.000	157.000
1078.000	149.000
1079.000	142.000
1080.000	148.000
1081.000	143.000
1082.000	155.000
1083.000	151.000
1084.000	159.000
1085.000	137.000
1086.000	157.000
1087.000	163.000
1088.000	148.000
1089.000	117.000
1090.000	160.000
1091.000	156.000
1092.000	154.000
1093.000	184.000
1094.000	171.000
1095.000	160.000
1096.000	183.000
1097.000	172.000
1098.000	152.000
1099.000	150.000
1100.000	172.000
1101.000	163.000
1102.000	169.000
1103.000	145.000
1104.000	172.000
1105.000	134.000
1106.000	177.000
1107.000	165.000
1108.000	161.000
1109.000	182.000
1110.000	159.000
1111.000	166.000
1112.000	144.000
1113.000	157.000
1114.000	147.000
1115.000	152.000
1116.000	142.000
1117.000	135.000
1118.000	134.000
1119.000	148.000
1120.000	152.000
1121.000	150.000
1122.000	158.000
1123.000	170.000
1124.000	141.000
1125.000	146.000
1126.000	163.000
1127.000	158.000
1128.000	156.000
1129.000	145.000
1130.000	162.000
1131.000	141.000
1132.000	186.000
1133.000	132.000
1134.000	156.000
1135.000	146.000
1136.000	162.000
1137.000	161.000
1138.000	156.000
1139.000	165.000
1140.000	172.000
1141.000	153.000
1142.000	175.000
1143.000	158.000
1144.000	175.000
1145.000	156.000
1146.000	145.000
1147.000	160.000
1148.000	171.000
1149.000	167.000
1150.000	185.000
1151.000	156.000
1152.000	163.000
1153.000	169.000
1154.000	172.000
1155.000	171.000
1156.000	168.000
1157.000	178.000
1158.000	192.000
