Date:	22-Sep-20		Time:	8:08 PM		Version no:	0.00		Project name:	55		Sample name:	222		Section name:	section		Position	707.540018	mm	E0	0.000000	keV	E1	1.000000	keV/channel	sample surface	6.471967	cm	Tube anode:	Mo		Tube voltage:	30	kV	Tube current:	30	mA	gain	15		std. database			resultfile	result		matrix element	11		sample thickness	1.000000		air passage	0.560000	cm	comments	in position		peaking_time	0.300000	m-sec	trigger_threshold	40.000000	V	mca_bin_width	2.000000	no:	number_mca_channels	2048.000000	no:	gap_time	2048.000000	m-sec	trigger_peaking_time	2048.000000	m-sec	GAINDAC	400		HIGHGAIN	400		TAURC	400		RCTAU	400		RCTAUFRAC	400		livetime	13.480499	seconds	runtime	15.000049	seconds	input_count_rate	44598.496007	cps	output_count_rate	40080.535737	cps	triggers	658949	seconds	events_in_run	586277	seconds	channel	content		1.000	0.000
2.000	0.000
3.000	0.000
4.000	0.000
5.000	0.000
6.000	0.000
7.000	0.000
8.000	0.000
9.000	0.000
10.000	0.000
11.000	0.000
12.000	0.000
13.000	0.000
14.000	0.000
15.000	0.000
16.000	0.000
17.000	0.000
18.000	0.000
19.000	0.000
20.000	0.000
21.000	0.000
22.000	0.000
23.000	0.000
24.000	0.000
25.000	0.000
26.000	0.000
27.000	0.000
28.000	0.000
29.000	0.000
30.000	0.000
31.000	0.000
32.000	0.000
33.000	0.000
34.000	0.000
35.000	0.000
36.000	0.000
37.000	0.000
38.000	0.000
39.000	0.000
40.000	0.000
41.000	1.000
42.000	0.000
43.000	0.000
44.000	0.000
45.000	0.000
46.000	0.000
47.000	0.000
48.000	0.000
49.000	1.000
50.000	0.000
51.000	2.000
52.000	0.000
53.000	6.000
54.000	3.000
55.000	11.000
56.000	5.000
57.000	17.000
58.000	12.000
59.000	19.000
60.000	25.000
61.000	29.000
62.000	28.000
63.000	31.000
64.000	25.000
65.000	32.000
66.000	24.000
67.000	25.000
68.000	28.000
69.000	25.000
70.000	20.000
71.000	23.000
72.000	22.000
73.000	43.000
74.000	15.000
75.000	22.000
76.000	15.000
77.000	20.000
78.000	21.000
79.000	28.000
80.000	22.000
81.000	22.000
82.000	30.000
83.000	23.000
84.000	31.000
85.000	19.000
86.000	26.000
87.000	30.000
88.000	20.000
89.000	27.000
90.000	23.000
91.000	25.000
92.000	20.000
93.000	10.000
94.000	21.000
95.000	21.000
96.000	16.000
97.000	18.000
98.000	16.000
99.000	23.000
100.000	13.000
101.000	19.000
102.000	18.000
103.000	15.000
104.000	18.000
105.000	10.000
106.000	25.000
107.000	20.000
108.000	19.000
109.000	20.000
110.000	15.000
111.000	19.000
112.000	21.000
113.000	13.000
114.000	23.000
115.000	19.000
116.000	14.000
117.000	18.000
118.000	19.000
119.000	19.000
120.000	12.000
121.000	18.000
122.000	15.000
123.000	18.000
124.000	19.000
125.000	20.000
126.000	30.000
127.000	13.000
128.000	22.000
129.000	12.000
130.000	14.000
131.000	22.000
132.000	10.000
133.000	22.000
134.000	19.000
135.000	20.000
136.000	15.000
137.000	18.000
138.000	12.000
139.000	15.000
140.000	12.000
141.000	18.000
142.000	27.000
143.000	24.000
144.000	21.000
145.000	22.000
146.000	20.000
147.000	21.000
148.000	17.000
149.000	32.000
150.000	19.000
151.000	19.000
152.000	18.000
153.000	16.000
154.000	19.000
155.000	17.000
156.000	15.000
157.000	21.000
158.000	21.000
159.000	8.000
160.000	15.000
161.000	14.000
162.000	17.000
163.000	20.000
164.000	18.000
165.000	21.000
166.000	27.000
167.000	44.000
168.000	46.000
169.000	46.000
170.000	63.000
171.000	54.000
172.000	60.000
173.000	49.000
174.000	42.000
175.000	37.000
176.000	34.000
177.000	22.000
178.000	33.000
179.000	28.000
180.000	22.000
181.000	32.000
182.000	36.000
183.000	45.000
184.000	62.000
185.000	88.000
186.000	114.000
187.000	130.000
188.000	173.000
189.000	199.000
190.000	218.000
191.000	236.000
192.000	226.000
193.000	149.000
194.000	170.000
195.000	130.000
196.000	114.000
197.000	70.000
198.000	47.000
199.000	41.000
200.000	27.000
201.000	23.000
202.000	11.000
203.000	15.000
204.000	19.000
205.000	16.000
206.000	11.000
207.000	14.000
208.000	8.000
209.000	9.000
210.000	20.000
211.000	11.000
212.000	28.000
213.000	19.000
214.000	17.000
215.000	21.000
216.000	26.000
217.000	25.000
218.000	33.000
219.000	48.000
220.000	45.000
221.000	47.000
222.000	44.000
223.000	48.000
224.000	59.000
225.000	39.000
226.000	49.000
227.000	34.000
228.000	34.000
229.000	25.000
230.000	28.000
231.000	21.000
232.000	15.000
233.000	18.000
234.000	18.000
235.000	6.000
236.000	15.000
237.000	18.000
238.000	19.000
239.000	11.000
240.000	16.000
241.000	10.000
242.000	11.000
243.000	11.000
244.000	13.000
245.000	19.000
246.000	23.000
247.000	23.000
248.000	39.000
249.000	42.000
250.000	46.000
251.000	77.000
252.000	101.000
253.000	96.000
254.000	95.000
255.000	136.000
256.000	159.000
257.000	160.000
258.000	171.000
259.000	137.000
260.000	135.000
261.000	127.000
262.000	98.000
263.000	52.000
264.000	56.000
265.000	37.000
266.000	40.000
267.000	27.000
268.000	22.000
269.000	29.000
270.000	21.000
271.000	27.000
272.000	24.000
273.000	23.000
274.000	34.000
275.000	30.000
276.000	33.000
277.000	27.000
278.000	24.000
279.000	32.000
280.000	25.000
281.000	31.000
282.000	31.000
283.000	20.000
284.000	41.000
285.000	56.000
286.000	48.000
287.000	55.000
288.000	47.000
289.000	57.000
290.000	68.000
291.000	53.000
292.000	54.000
293.000	45.000
294.000	49.000
295.000	46.000
296.000	32.000
297.000	28.000
298.000	35.000
299.000	15.000
300.000	28.000
301.000	22.000
302.000	16.000
303.000	23.000
304.000	19.000
305.000	18.000
306.000	21.000
307.000	21.000
308.000	27.000
309.000	27.000
310.000	31.000
311.000	18.000
312.000	29.000
313.000	41.000
314.000	42.000
315.000	57.000
316.000	71.000
317.000	89.000
318.000	124.000
319.000	144.000
320.000	175.000
321.000	209.000
322.000	220.000
323.000	264.000
324.000	276.000
325.000	248.000
326.000	271.000
327.000	234.000
328.000	230.000
329.000	156.000
330.000	133.000
331.000	113.000
332.000	92.000
333.000	61.000
334.000	59.000
335.000	43.000
336.000	34.000
337.000	36.000
338.000	29.000
339.000	34.000
340.000	44.000
341.000	47.000
342.000	67.000
343.000	81.000
344.000	95.000
345.000	113.000
346.000	156.000
347.000	275.000
348.000	431.000
349.000	669.000
350.000	1033.000
351.000	1646.000
352.000	2352.000
353.000	3612.000
354.000	5206.000
355.000	7084.000
356.000	9483.000
357.000	11689.000
358.000	14066.000
359.000	16200.000
360.000	17461.000
361.000	17990.000
362.000	18011.000
363.000	17122.000
364.000	15244.000
365.000	13278.000
366.000	11097.000
367.000	8766.000
368.000	6444.000
369.000	4616.000
370.000	3212.000
371.000	2110.000
372.000	1382.000
373.000	834.000
374.000	513.000
375.000	325.000
376.000	238.000
377.000	165.000
378.000	162.000
379.000	156.000
380.000	191.000
381.000	236.000
382.000	344.000
383.000	481.000
384.000	584.000
385.000	834.000
386.000	1136.000
387.000	1342.000
388.000	1694.000
389.000	2008.000
390.000	2342.000
391.000	2518.000
392.000	2735.000
393.000	2728.000
394.000	2652.000
395.000	2432.000
396.000	2157.000
397.000	1919.000
398.000	1461.000
399.000	1243.000
400.000	941.000
401.000	629.000
402.000	466.000
403.000	308.000
404.000	188.000
405.000	138.000
406.000	82.000
407.000	58.000
408.000	33.000
409.000	12.000
410.000	18.000
411.000	5.000
412.000	13.000
413.000	6.000
414.000	3.000
415.000	9.000
416.000	10.000
417.000	6.000
418.000	8.000
419.000	4.000
420.000	10.000
421.000	12.000
422.000	3.000
423.000	7.000
424.000	8.000
425.000	15.000
426.000	13.000
427.000	12.000
428.000	21.000
429.000	21.000
430.000	35.000
431.000	36.000
432.000	45.000
433.000	76.000
434.000	87.000
435.000	100.000
436.000	125.000
437.000	130.000
438.000	180.000
439.000	157.000
440.000	195.000
441.000	221.000
442.000	160.000
443.000	174.000
444.000	167.000
445.000	149.000
446.000	130.000
447.000	112.000
448.000	64.000
449.000	67.000
450.000	58.000
451.000	32.000
452.000	36.000
453.000	39.000
454.000	39.000
455.000	40.000
456.000	22.000
457.000	28.000
458.000	20.000
459.000	19.000
460.000	21.000
461.000	16.000
462.000	17.000
463.000	18.000
464.000	12.000
465.000	13.000
466.000	18.000
467.000	16.000
468.000	17.000
469.000	14.000
470.000	15.000
471.000	16.000
472.000	23.000
473.000	15.000
474.000	28.000
475.000	24.000
476.000	29.000
477.000	32.000
478.000	44.000
479.000	36.000
480.000	49.000
481.000	40.000
482.000	36.000
483.000	42.000
484.000	47.000
485.000	49.000
486.000	40.000
487.000	31.000
488.000	42.000
489.000	25.000
490.000	19.000
491.000	22.000
492.000	22.000
493.000	21.000
494.000	11.000
495.000	16.000
496.000	10.000
497.000	23.000
498.000	9.000
499.000	8.000
500.000	14.000
501.000	20.000
502.000	18.000
503.000	20.000
504.000	19.000
505.000	10.000
506.000	14.000
507.000	21.000
508.000	8.000
509.000	17.000
510.000	15.000
511.000	21.000
512.000	12.000
513.000	14.000
514.000	24.000
515.000	21.000
516.000	25.000
517.000	27.000
518.000	21.000
519.000	28.000
520.000	31.000
521.000	27.000
522.000	37.000
523.000	41.000
524.000	49.000
525.000	42.000
526.000	46.000
527.000	53.000
528.000	60.000
529.000	54.000
530.000	60.000
531.000	60.000
532.000	53.000
533.000	55.000
534.000	50.000
535.000	37.000
536.000	35.000
537.000	42.000
538.000	29.000
539.000	17.000
540.000	27.000
541.000	26.000
542.000	16.000
543.000	24.000
544.000	17.000
545.000	18.000
546.000	23.000
547.000	20.000
548.000	13.000
549.000	23.000
550.000	16.000
551.000	25.000
552.000	22.000
553.000	24.000
554.000	21.000
555.000	26.000
556.000	19.000
557.000	18.000
558.000	20.000
559.000	25.000
560.000	29.000
561.000	24.000
562.000	38.000
563.000	32.000
564.000	24.000
565.000	33.000
566.000	35.000
567.000	46.000
568.000	42.000
569.000	53.000
570.000	52.000
571.000	65.000
572.000	74.000
573.000	69.000
574.000	80.000
575.000	80.000
576.000	87.000
577.000	101.000
578.000	75.000
579.000	67.000
580.000	83.000
581.000	54.000
582.000	77.000
583.000	58.000
584.000	55.000
585.000	51.000
586.000	36.000
587.000	31.000
588.000	43.000
589.000	23.000
590.000	34.000
591.000	31.000
592.000	21.000
593.000	29.000
594.000	35.000
595.000	35.000
596.000	35.000
597.000	29.000
598.000	25.000
599.000	37.000
600.000	27.000
601.000	37.000
602.000	47.000
603.000	42.000
604.000	39.000
605.000	47.000
606.000	62.000
607.000	69.000
608.000	89.000
609.000	129.000
610.000	187.000
611.000	248.000
612.000	297.000
613.000	471.000
614.000	629.000
615.000	891.000
616.000	1185.000
617.000	1491.000
618.000	1883.000
619.000	2148.000
620.000	2768.000
621.000	3169.000
622.000	3431.000
623.000	3770.000
624.000	4059.000
625.000	4021.000
626.000	4040.000
627.000	3926.000
628.000	3710.000
629.000	3359.000
630.000	3000.000
631.000	2584.000
632.000	2161.000
633.000	1710.000
634.000	1421.000
635.000	1060.000
636.000	757.000
637.000	596.000
638.000	446.000
639.000	274.000
640.000	231.000
641.000	131.000
642.000	115.000
643.000	99.000
644.000	74.000
645.000	79.000
646.000	76.000
647.000	60.000
648.000	62.000
649.000	57.000
650.000	50.000
651.000	46.000
652.000	52.000
653.000	50.000
654.000	49.000
655.000	47.000
656.000	55.000
657.000	67.000
658.000	56.000
659.000	52.000
660.000	43.000
661.000	73.000
662.000	64.000
663.000	66.000
664.000	66.000
665.000	56.000
666.000	53.000
667.000	59.000
668.000	57.000
669.000	66.000
670.000	65.000
671.000	85.000
672.000	88.000
673.000	115.000
674.000	97.000
675.000	136.000
676.000	116.000
677.000	159.000
678.000	223.000
679.000	210.000
680.000	288.000
681.000	329.000
682.000	359.000
683.000	457.000
684.000	534.000
685.000	616.000
686.000	595.000
687.000	656.000
688.000	732.000
689.000	707.000
690.000	697.000
691.000	683.000
692.000	630.000
693.000	571.000
694.000	522.000
695.000	448.000
696.000	392.000
697.000	319.000
698.000	310.000
699.000	229.000
700.000	192.000
701.000	136.000
702.000	130.000
703.000	111.000
704.000	107.000
705.000	85.000
706.000	80.000
707.000	53.000
708.000	65.000
709.000	55.000
710.000	76.000
711.000	65.000
712.000	56.000
713.000	58.000
714.000	58.000
715.000	47.000
716.000	78.000
717.000	76.000
718.000	87.000
719.000	86.000
720.000	77.000
721.000	61.000
722.000	72.000
723.000	74.000
724.000	91.000
725.000	63.000
726.000	80.000
727.000	83.000
728.000	65.000
729.000	100.000
730.000	77.000
731.000	70.000
732.000	95.000
733.000	82.000
734.000	61.000
735.000	68.000
736.000	71.000
737.000	69.000
738.000	70.000
739.000	76.000
740.000	72.000
741.000	75.000
742.000	63.000
743.000	66.000
744.000	61.000
745.000	69.000
746.000	72.000
747.000	61.000
748.000	68.000
749.000	62.000
750.000	49.000
751.000	76.000
752.000	66.000
753.000	58.000
754.000	77.000
755.000	65.000
756.000	72.000
757.000	54.000
758.000	70.000
759.000	55.000
760.000	63.000
761.000	51.000
762.000	70.000
763.000	63.000
764.000	90.000
765.000	64.000
766.000	76.000
767.000	71.000
768.000	69.000
769.000	59.000
770.000	84.000
771.000	67.000
772.000	90.000
773.000	83.000
774.000	82.000
775.000	83.000
776.000	88.000
777.000	99.000
778.000	81.000
779.000	106.000
780.000	90.000
781.000	107.000
782.000	104.000
783.000	91.000
784.000	112.000
785.000	119.000
786.000	109.000
787.000	115.000
788.000	126.000
789.000	124.000
790.000	128.000
791.000	121.000
792.000	125.000
793.000	120.000
794.000	130.000
795.000	138.000
796.000	133.000
797.000	122.000
798.000	120.000
799.000	129.000
800.000	131.000
801.000	143.000
802.000	128.000
803.000	167.000
804.000	142.000
805.000	154.000
806.000	137.000
807.000	168.000
808.000	149.000
809.000	153.000
810.000	190.000
811.000	192.000
812.000	180.000
813.000	211.000
814.000	233.000
815.000	237.000
816.000	277.000
817.000	247.000
818.000	270.000
819.000	293.000
820.000	307.000
821.000	303.000
822.000	267.000
823.000	245.000
824.000	253.000
825.000	216.000
826.000	200.000
827.000	173.000
828.000	187.000
829.000	181.000
830.000	146.000
831.000	146.000
832.000	145.000
833.000	117.000
834.000	135.000
835.000	118.000
836.000	134.000
837.000	126.000
838.000	107.000
839.000	114.000
840.000	124.000
841.000	136.000
842.000	119.000
843.000	107.000
844.000	119.000
845.000	131.000
846.000	124.000
847.000	102.000
848.000	130.000
849.000	111.000
850.000	119.000
851.000	115.000
852.000	122.000
853.000	121.000
854.000	114.000
855.000	117.000
856.000	112.000
857.000	122.000
858.000	118.000
859.000	89.000
860.000	113.000
861.000	118.000
862.000	130.000
863.000	107.000
864.000	105.000
865.000	113.000
866.000	112.000
867.000	106.000
868.000	110.000
869.000	120.000
870.000	108.000
871.000	94.000
872.000	99.000
873.000	106.000
874.000	124.000
875.000	110.000
876.000	124.000
877.000	103.000
878.000	125.000
879.000	123.000
880.000	101.000
881.000	100.000
882.000	104.000
883.000	112.000
884.000	112.000
885.000	116.000
886.000	127.000
887.000	110.000
888.000	106.000
889.000	120.000
890.000	131.000
891.000	126.000
892.000	130.000
893.000	107.000
894.000	122.000
895.000	143.000
896.000	128.000
897.000	139.000
898.000	115.000
899.000	131.000
900.000	154.000
901.000	153.000
902.000	117.000
903.000	169.000
904.000	148.000
905.000	128.000
906.000	149.000
907.000	147.000
908.000	143.000
909.000	138.000
910.000	156.000
911.000	141.000
912.000	138.000
913.000	161.000
914.000	179.000
915.000	177.000
916.000	188.000
917.000	172.000
918.000	150.000
919.000	165.000
920.000	185.000
921.000	158.000
922.000	175.000
923.000	178.000
924.000	170.000
925.000	173.000
926.000	180.000
927.000	163.000
928.000	183.000
929.000	180.000
930.000	203.000
931.000	197.000
932.000	171.000
933.000	210.000
934.000	199.000
935.000	207.000
936.000	221.000
937.000	201.000
938.000	254.000
939.000	208.000
940.000	238.000
941.000	255.000
942.000	264.000
943.000	226.000
944.000	251.000
945.000	263.000
946.000	235.000
947.000	258.000
948.000	228.000
949.000	219.000
950.000	228.000
951.000	224.000
952.000	201.000
953.000	211.000
954.000	198.000
955.000	180.000
956.000	187.000
957.000	184.000
958.000	158.000
959.000	163.000
960.000	158.000
961.000	155.000
962.000	168.000
963.000	144.000
964.000	171.000
965.000	178.000
966.000	178.000
967.000	177.000
968.000	154.000
969.000	190.000
970.000	182.000
971.000	183.000
972.000	189.000
973.000	158.000
974.000	184.000
975.000	167.000
976.000	205.000
977.000	179.000
978.000	148.000
979.000	145.000
980.000	163.000
981.000	150.000
982.000	158.000
983.000	142.000
984.000	140.000
985.000	134.000
986.000	147.000
987.000	130.000
988.000	143.000
989.000	148.000
990.000	140.000
991.000	137.000
992.000	145.000
993.000	138.000
994.000	125.000
995.000	142.000
996.000	136.000
997.000	152.000
998.000	146.000
999.000	122.000
1000.000	109.000
1001.000	137.000
1002.000	140.000
1003.000	129.000
1004.000	130.000
1005.000	110.000
1006.000	125.000
1007.000	132.000
1008.000	136.000
1009.000	149.000
1010.000	121.000
1011.000	127.000
1012.000	117.000
1013.000	129.000
1014.000	131.000
1015.000	128.000
1016.000	129.000
1017.000	130.000
1018.000	114.000
1019.000	144.000
1020.000	145.000
1021.000	154.000
1022.000	121.000
1023.000	130.000
1024.000	121.000
1025.000	110.000
1026.000	137.000
1027.000	147.000
1028.000	140.000
1029.000	146.000
1030.000	145.000
1031.000	129.000
1032.000	142.000
1033.000	151.000
1034.000	179.000
1035.000	151.000
1036.000	137.000
1037.000	139.000
1038.000	127.000
1039.000	140.000
1040.000	152.000
1041.000	153.000
1042.000	145.000
1043.000	139.000
1044.000	136.000
1045.000	140.000
1046.000	159.000
1047.000	141.000
1048.000	149.000
1049.000	127.000
1050.000	137.000
1051.000	154.000
1052.000	133.000
1053.000	164.000
1054.000	150.000
1055.000	165.000
1056.000	148.000
1057.000	178.000
1058.000	145.000
1059.000	153.000
1060.000	144.000
1061.000	159.000
1062.000	166.000
1063.000	160.000
1064.000	150.000
1065.000	145.000
1066.000	164.000
1067.000	142.000
1068.000	165.000
1069.000	161.000
1070.000	178.000
1071.000	159.000
1072.000	131.000
1073.000	173.000
1074.000	164.000
1075.000	144.000
1076.000	161.000
1077.000	152.000
1078.000	160.000
1079.000	129.000
1080.000	142.000
1081.000	169.000
1082.000	153.000
1083.000	173.000
1084.000	142.000
1085.000	155.000
1086.000	149.000
1087.000	160.000
1088.000	147.000
1089.000	145.000
1090.000	166.000
1091.000	159.000
1092.000	167.000
1093.000	127.000
1094.000	152.000
1095.000	153.000
1096.000	139.000
1097.000	165.000
1098.000	134.000
1099.000	167.000
1100.000	170.000
1101.000	148.000
1102.000	158.000
1103.000	150.000
1104.000	152.000
1105.000	150.000
1106.000	152.000
1107.000	152.000
1108.000	168.000
1109.000	160.000
1110.000	157.000
1111.000	132.000
1112.000	145.000
1113.000	148.000
1114.000	135.000
1115.000	168.000
1116.000	162.000
1117.000	149.000
1118.000	185.000
1119.000	140.000
1120.000	145.000
1121.000	160.000
1122.000	158.000
1123.000	168.000
1124.000	125.000
1125.000	172.000
1126.000	141.000
1127.000	110.000
1128.000	161.000
1129.000	149.000
1130.000	150.000
1131.000	157.000
1132.000	172.000
1133.000	131.000
1134.000	152.000
1135.000	130.000
1136.000	147.000
1137.000	145.000
1138.000	167.000
1139.000	154.000
1140.000	159.000
1141.000	154.000
1142.000	163.000
1143.000	136.000
1144.000	148.000
1145.000	144.000
1146.000	169.000
1147.000	171.000
1148.000	132.000
1149.000	177.000
1150.000	174.000
1151.000	188.000
1152.000	164.000
1153.000	169.000
1154.000	172.000
1155.000	178.000
1156.000	183.000
1157.000	181.000
1158.000	192.000
