Date:	22-Sep-20		Time:	8:04 PM		Version no:	0.00		Project name:	55		Sample name:	222		Section name:	section		Position	690.540018	mm	E0	0.000000	keV	E1	1.000000	keV/channel	sample surface	6.452438	cm	Tube anode:	Mo		Tube voltage:	30	kV	Tube current:	30	mA	gain	15		std. database			resultfile	result		matrix element	11		sample thickness	1.000000		air passage	0.560000	cm	comments	in position		peaking_time	0.300000	m-sec	trigger_threshold	40.000000	V	mca_bin_width	2.000000	no:	number_mca_channels	2048.000000	no:	gap_time	2048.000000	m-sec	trigger_peaking_time	2048.000000	m-sec	GAINDAC	400		HIGHGAIN	400		TAURC	400		RCTAU	400		RCTAUFRAC	400		livetime	13.475463	seconds	runtime	15.000234	seconds	input_count_rate	45147.464674	cps	output_count_rate	40558.233958	cps	triggers	666886	seconds	events_in_run	593486	seconds	channel	content		1.000	0.000
2.000	0.000
3.000	0.000
4.000	0.000
5.000	0.000
6.000	0.000
7.000	0.000
8.000	0.000
9.000	0.000
10.000	0.000
11.000	0.000
12.000	0.000
13.000	0.000
14.000	0.000
15.000	0.000
16.000	0.000
17.000	0.000
18.000	0.000
19.000	0.000
20.000	0.000
21.000	0.000
22.000	0.000
23.000	0.000
24.000	0.000
25.000	0.000
26.000	0.000
27.000	0.000
28.000	0.000
29.000	0.000
30.000	0.000
31.000	0.000
32.000	0.000
33.000	1.000
34.000	0.000
35.000	1.000
36.000	0.000
37.000	0.000
38.000	0.000
39.000	0.000
40.000	0.000
41.000	1.000
42.000	0.000
43.000	0.000
44.000	1.000
45.000	0.000
46.000	2.000
47.000	0.000
48.000	0.000
49.000	4.000
50.000	1.000
51.000	3.000
52.000	2.000
53.000	0.000
54.000	3.000
55.000	4.000
56.000	10.000
57.000	6.000
58.000	13.000
59.000	11.000
60.000	25.000
61.000	22.000
62.000	25.000
63.000	28.000
64.000	25.000
65.000	40.000
66.000	25.000
67.000	17.000
68.000	31.000
69.000	31.000
70.000	23.000
71.000	27.000
72.000	29.000
73.000	24.000
74.000	24.000
75.000	18.000
76.000	32.000
77.000	29.000
78.000	26.000
79.000	22.000
80.000	19.000
81.000	14.000
82.000	19.000
83.000	19.000
84.000	32.000
85.000	27.000
86.000	36.000
87.000	24.000
88.000	21.000
89.000	25.000
90.000	24.000
91.000	21.000
92.000	17.000
93.000	21.000
94.000	12.000
95.000	26.000
96.000	19.000
97.000	22.000
98.000	20.000
99.000	22.000
100.000	10.000
101.000	19.000
102.000	11.000
103.000	19.000
104.000	25.000
105.000	28.000
106.000	17.000
107.000	22.000
108.000	15.000
109.000	15.000
110.000	11.000
111.000	23.000
112.000	18.000
113.000	14.000
114.000	21.000
115.000	11.000
116.000	17.000
117.000	19.000
118.000	17.000
119.000	16.000
120.000	17.000
121.000	20.000
122.000	21.000
123.000	12.000
124.000	16.000
125.000	23.000
126.000	15.000
127.000	14.000
128.000	16.000
129.000	11.000
130.000	11.000
131.000	12.000
132.000	16.000
133.000	16.000
134.000	14.000
135.000	10.000
136.000	16.000
137.000	27.000
138.000	18.000
139.000	22.000
140.000	18.000
141.000	18.000
142.000	18.000
143.000	26.000
144.000	17.000
145.000	20.000
146.000	28.000
147.000	20.000
148.000	14.000
149.000	26.000
150.000	20.000
151.000	15.000
152.000	23.000
153.000	21.000
154.000	19.000
155.000	21.000
156.000	12.000
157.000	14.000
158.000	15.000
159.000	23.000
160.000	14.000
161.000	16.000
162.000	16.000
163.000	7.000
164.000	23.000
165.000	29.000
166.000	27.000
167.000	19.000
168.000	39.000
169.000	40.000
170.000	56.000
171.000	52.000
172.000	59.000
173.000	40.000
174.000	34.000
175.000	21.000
176.000	32.000
177.000	34.000
178.000	23.000
179.000	32.000
180.000	28.000
181.000	32.000
182.000	43.000
183.000	48.000
184.000	51.000
185.000	76.000
186.000	119.000
187.000	144.000
188.000	177.000
189.000	194.000
190.000	229.000
191.000	231.000
192.000	183.000
193.000	199.000
194.000	165.000
195.000	138.000
196.000	100.000
197.000	76.000
198.000	51.000
199.000	28.000
200.000	21.000
201.000	24.000
202.000	16.000
203.000	9.000
204.000	19.000
205.000	11.000
206.000	20.000
207.000	8.000
208.000	6.000
209.000	17.000
210.000	17.000
211.000	16.000
212.000	14.000
213.000	21.000
214.000	14.000
215.000	22.000
216.000	26.000
217.000	28.000
218.000	38.000
219.000	31.000
220.000	41.000
221.000	33.000
222.000	55.000
223.000	51.000
224.000	51.000
225.000	55.000
226.000	41.000
227.000	30.000
228.000	38.000
229.000	33.000
230.000	24.000
231.000	15.000
232.000	12.000
233.000	15.000
234.000	13.000
235.000	13.000
236.000	16.000
237.000	13.000
238.000	4.000
239.000	11.000
240.000	14.000
241.000	13.000
242.000	8.000
243.000	15.000
244.000	14.000
245.000	27.000
246.000	15.000
247.000	21.000
248.000	30.000
249.000	33.000
250.000	51.000
251.000	67.000
252.000	103.000
253.000	128.000
254.000	140.000
255.000	168.000
256.000	190.000
257.000	191.000
258.000	139.000
259.000	157.000
260.000	136.000
261.000	119.000
262.000	105.000
263.000	78.000
264.000	48.000
265.000	29.000
266.000	21.000
267.000	18.000
268.000	18.000
269.000	37.000
270.000	37.000
271.000	25.000
272.000	31.000
273.000	24.000
274.000	34.000
275.000	32.000
276.000	31.000
277.000	24.000
278.000	39.000
279.000	30.000
280.000	27.000
281.000	21.000
282.000	28.000
283.000	29.000
284.000	35.000
285.000	38.000
286.000	50.000
287.000	53.000
288.000	54.000
289.000	50.000
290.000	63.000
291.000	72.000
292.000	54.000
293.000	61.000
294.000	32.000
295.000	32.000
296.000	31.000
297.000	21.000
298.000	19.000
299.000	22.000
300.000	26.000
301.000	20.000
302.000	21.000
303.000	16.000
304.000	18.000
305.000	21.000
306.000	35.000
307.000	19.000
308.000	24.000
309.000	22.000
310.000	31.000
311.000	35.000
312.000	32.000
313.000	26.000
314.000	40.000
315.000	59.000
316.000	63.000
317.000	79.000
318.000	139.000
319.000	157.000
320.000	169.000
321.000	210.000
322.000	222.000
323.000	230.000
324.000	252.000
325.000	290.000
326.000	237.000
327.000	241.000
328.000	218.000
329.000	184.000
330.000	145.000
331.000	103.000
332.000	101.000
333.000	80.000
334.000	51.000
335.000	36.000
336.000	27.000
337.000	27.000
338.000	39.000
339.000	40.000
340.000	41.000
341.000	38.000
342.000	55.000
343.000	62.000
344.000	103.000
345.000	114.000
346.000	188.000
347.000	305.000
348.000	436.000
349.000	660.000
350.000	1076.000
351.000	1610.000
352.000	2536.000
353.000	3696.000
354.000	5131.000
355.000	7243.000
356.000	9340.000
357.000	11807.000
358.000	13904.000
359.000	15856.000
360.000	17457.000
361.000	18494.000
362.000	18091.000
363.000	17197.000
364.000	15654.000
365.000	13253.000
366.000	11030.000
367.000	8612.000
368.000	6492.000
369.000	4693.000
370.000	3280.000
371.000	2142.000
372.000	1406.000
373.000	859.000
374.000	509.000
375.000	297.000
376.000	207.000
377.000	159.000
378.000	114.000
379.000	179.000
380.000	200.000
381.000	283.000
382.000	321.000
383.000	492.000
384.000	644.000
385.000	807.000
386.000	1083.000
387.000	1352.000
388.000	1719.000
389.000	2064.000
390.000	2321.000
391.000	2586.000
392.000	2772.000
393.000	2678.000
394.000	2693.000
395.000	2482.000
396.000	2116.000
397.000	1843.000
398.000	1499.000
399.000	1229.000
400.000	919.000
401.000	712.000
402.000	469.000
403.000	286.000
404.000	188.000
405.000	121.000
406.000	81.000
407.000	54.000
408.000	25.000
409.000	21.000
410.000	14.000
411.000	12.000
412.000	14.000
413.000	14.000
414.000	7.000
415.000	7.000
416.000	4.000
417.000	5.000
418.000	5.000
419.000	8.000
420.000	11.000
421.000	7.000
422.000	9.000
423.000	11.000
424.000	8.000
425.000	12.000
426.000	8.000
427.000	10.000
428.000	23.000
429.000	20.000
430.000	20.000
431.000	41.000
432.000	54.000
433.000	50.000
434.000	64.000
435.000	116.000
436.000	105.000
437.000	141.000
438.000	169.000
439.000	182.000
440.000	180.000
441.000	188.000
442.000	167.000
443.000	182.000
444.000	165.000
445.000	136.000
446.000	108.000
447.000	81.000
448.000	100.000
449.000	82.000
450.000	40.000
451.000	52.000
452.000	47.000
453.000	35.000
454.000	28.000
455.000	34.000
456.000	26.000
457.000	31.000
458.000	27.000
459.000	19.000
460.000	18.000
461.000	16.000
462.000	23.000
463.000	16.000
464.000	19.000
465.000	9.000
466.000	12.000
467.000	12.000
468.000	19.000
469.000	20.000
470.000	12.000
471.000	14.000
472.000	34.000
473.000	26.000
474.000	23.000
475.000	26.000
476.000	28.000
477.000	37.000
478.000	33.000
479.000	39.000
480.000	46.000
481.000	57.000
482.000	46.000
483.000	44.000
484.000	37.000
485.000	45.000
486.000	31.000
487.000	29.000
488.000	38.000
489.000	22.000
490.000	25.000
491.000	14.000
492.000	31.000
493.000	21.000
494.000	18.000
495.000	15.000
496.000	9.000
497.000	15.000
498.000	26.000
499.000	12.000
500.000	16.000
501.000	9.000
502.000	16.000
503.000	18.000
504.000	13.000
505.000	19.000
506.000	23.000
507.000	13.000
508.000	19.000
509.000	15.000
510.000	16.000
511.000	22.000
512.000	24.000
513.000	23.000
514.000	20.000
515.000	17.000
516.000	31.000
517.000	24.000
518.000	21.000
519.000	29.000
520.000	39.000
521.000	31.000
522.000	25.000
523.000	32.000
524.000	33.000
525.000	40.000
526.000	36.000
527.000	49.000
528.000	41.000
529.000	40.000
530.000	61.000
531.000	44.000
532.000	37.000
533.000	34.000
534.000	37.000
535.000	22.000
536.000	36.000
537.000	23.000
538.000	26.000
539.000	31.000
540.000	13.000
541.000	20.000
542.000	19.000
543.000	22.000
544.000	22.000
545.000	26.000
546.000	24.000
547.000	20.000
548.000	30.000
549.000	20.000
550.000	24.000
551.000	21.000
552.000	15.000
553.000	21.000
554.000	23.000
555.000	14.000
556.000	17.000
557.000	23.000
558.000	23.000
559.000	21.000
560.000	29.000
561.000	27.000
562.000	32.000
563.000	33.000
564.000	40.000
565.000	38.000
566.000	38.000
567.000	38.000
568.000	56.000
569.000	71.000
570.000	50.000
571.000	72.000
572.000	72.000
573.000	89.000
574.000	85.000
575.000	95.000
576.000	87.000
577.000	114.000
578.000	88.000
579.000	85.000
580.000	82.000
581.000	77.000
582.000	60.000
583.000	75.000
584.000	55.000
585.000	55.000
586.000	41.000
587.000	38.000
588.000	43.000
589.000	30.000
590.000	33.000
591.000	39.000
592.000	35.000
593.000	24.000
594.000	33.000
595.000	24.000
596.000	34.000
597.000	30.000
598.000	33.000
599.000	21.000
600.000	24.000
601.000	27.000
602.000	35.000
603.000	31.000
604.000	33.000
605.000	52.000
606.000	66.000
607.000	66.000
608.000	90.000
609.000	141.000
610.000	173.000
611.000	272.000
612.000	329.000
613.000	453.000
614.000	668.000
615.000	918.000
616.000	1177.000
617.000	1517.000
618.000	1883.000
619.000	2301.000
620.000	2637.000
621.000	3167.000
622.000	3491.000
623.000	3797.000
624.000	4115.000
625.000	4043.000
626.000	4085.000
627.000	4033.000
628.000	3645.000
629.000	3387.000
630.000	2956.000
631.000	2602.000
632.000	2068.000
633.000	1653.000
634.000	1309.000
635.000	1103.000
636.000	787.000
637.000	586.000
638.000	418.000
639.000	314.000
640.000	214.000
641.000	159.000
642.000	110.000
643.000	85.000
644.000	89.000
645.000	70.000
646.000	65.000
647.000	56.000
648.000	56.000
649.000	42.000
650.000	64.000
651.000	51.000
652.000	41.000
653.000	54.000
654.000	72.000
655.000	56.000
656.000	44.000
657.000	60.000
658.000	42.000
659.000	56.000
660.000	50.000
661.000	61.000
662.000	51.000
663.000	56.000
664.000	59.000
665.000	56.000
666.000	77.000
667.000	67.000
668.000	76.000
669.000	84.000
670.000	85.000
671.000	79.000
672.000	78.000
673.000	86.000
674.000	103.000
675.000	112.000
676.000	135.000
677.000	164.000
678.000	194.000
679.000	260.000
680.000	292.000
681.000	344.000
682.000	339.000
683.000	462.000
684.000	523.000
685.000	546.000
686.000	606.000
687.000	670.000
688.000	688.000
689.000	714.000
690.000	708.000
691.000	673.000
692.000	652.000
693.000	586.000
694.000	521.000
695.000	476.000
696.000	424.000
697.000	379.000
698.000	278.000
699.000	236.000
700.000	168.000
701.000	174.000
702.000	119.000
703.000	105.000
704.000	79.000
705.000	82.000
706.000	55.000
707.000	54.000
708.000	64.000
709.000	60.000
710.000	57.000
711.000	61.000
712.000	59.000
713.000	69.000
714.000	49.000
715.000	56.000
716.000	63.000
717.000	78.000
718.000	61.000
719.000	69.000
720.000	77.000
721.000	86.000
722.000	84.000
723.000	89.000
724.000	75.000
725.000	103.000
726.000	91.000
727.000	63.000
728.000	85.000
729.000	98.000
730.000	73.000
731.000	87.000
732.000	92.000
733.000	80.000
734.000	83.000
735.000	69.000
736.000	82.000
737.000	71.000
738.000	57.000
739.000	49.000
740.000	72.000
741.000	64.000
742.000	70.000
743.000	70.000
744.000	79.000
745.000	64.000
746.000	62.000
747.000	55.000
748.000	64.000
749.000	64.000
750.000	71.000
751.000	71.000
752.000	67.000
753.000	70.000
754.000	70.000
755.000	80.000
756.000	61.000
757.000	68.000
758.000	68.000
759.000	61.000
760.000	58.000
761.000	56.000
762.000	63.000
763.000	73.000
764.000	79.000
765.000	69.000
766.000	76.000
767.000	62.000
768.000	71.000
769.000	79.000
770.000	84.000
771.000	85.000
772.000	89.000
773.000	74.000
774.000	81.000
775.000	94.000
776.000	95.000
777.000	105.000
778.000	97.000
779.000	112.000
780.000	98.000
781.000	116.000
782.000	102.000
783.000	111.000
784.000	99.000
785.000	148.000
786.000	135.000
787.000	137.000
788.000	129.000
789.000	131.000
790.000	132.000
791.000	135.000
792.000	125.000
793.000	127.000
794.000	145.000
795.000	141.000
796.000	116.000
797.000	133.000
798.000	145.000
799.000	136.000
800.000	124.000
801.000	128.000
802.000	136.000
803.000	151.000
804.000	129.000
805.000	151.000
806.000	159.000
807.000	146.000
808.000	144.000
809.000	165.000
810.000	160.000
811.000	208.000
812.000	200.000
813.000	248.000
814.000	211.000
815.000	261.000
816.000	248.000
817.000	266.000
818.000	276.000
819.000	278.000
820.000	276.000
821.000	275.000
822.000	275.000
823.000	266.000
824.000	245.000
825.000	246.000
826.000	202.000
827.000	208.000
828.000	186.000
829.000	157.000
830.000	139.000
831.000	171.000
832.000	143.000
833.000	113.000
834.000	137.000
835.000	135.000
836.000	133.000
837.000	135.000
838.000	116.000
839.000	132.000
840.000	116.000
841.000	130.000
842.000	134.000
843.000	125.000
844.000	138.000
845.000	140.000
846.000	134.000
847.000	122.000
848.000	135.000
849.000	118.000
850.000	123.000
851.000	117.000
852.000	125.000
853.000	112.000
854.000	132.000
855.000	117.000
856.000	122.000
857.000	107.000
858.000	121.000
859.000	120.000
860.000	128.000
861.000	123.000
862.000	99.000
863.000	104.000
864.000	123.000
865.000	111.000
866.000	135.000
867.000	120.000
868.000	120.000
869.000	101.000
870.000	105.000
871.000	115.000
872.000	117.000
873.000	111.000
874.000	114.000
875.000	146.000
876.000	116.000
877.000	115.000
878.000	114.000
879.000	108.000
880.000	113.000
881.000	125.000
882.000	115.000
883.000	130.000
884.000	114.000
885.000	123.000
886.000	123.000
887.000	134.000
888.000	112.000
889.000	119.000
890.000	110.000
891.000	133.000
892.000	106.000
893.000	137.000
894.000	102.000
895.000	131.000
896.000	120.000
897.000	136.000
898.000	148.000
899.000	153.000
900.000	148.000
901.000	122.000
902.000	147.000
903.000	149.000
904.000	118.000
905.000	141.000
906.000	152.000
907.000	135.000
908.000	179.000
909.000	149.000
910.000	160.000
911.000	159.000
912.000	160.000
913.000	130.000
914.000	181.000
915.000	170.000
916.000	166.000
917.000	196.000
918.000	186.000
919.000	147.000
920.000	192.000
921.000	178.000
922.000	195.000
923.000	170.000
924.000	192.000
925.000	174.000
926.000	189.000
927.000	202.000
928.000	204.000
929.000	193.000
930.000	196.000
931.000	204.000
932.000	183.000
933.000	212.000
934.000	210.000
935.000	239.000
936.000	203.000
937.000	229.000
938.000	217.000
939.000	258.000
940.000	232.000
941.000	238.000
942.000	275.000
943.000	268.000
944.000	240.000
945.000	241.000
946.000	272.000
947.000	249.000
948.000	254.000
949.000	221.000
950.000	219.000
951.000	211.000
952.000	204.000
953.000	212.000
954.000	184.000
955.000	184.000
956.000	182.000
957.000	172.000
958.000	167.000
959.000	184.000
960.000	183.000
961.000	175.000
962.000	173.000
963.000	193.000
964.000	196.000
965.000	180.000
966.000	178.000
967.000	182.000
968.000	160.000
969.000	194.000
970.000	178.000
971.000	189.000
972.000	174.000
973.000	168.000
974.000	184.000
975.000	162.000
976.000	183.000
977.000	186.000
978.000	168.000
979.000	169.000
980.000	135.000
981.000	161.000
982.000	160.000
983.000	135.000
984.000	142.000
985.000	164.000
986.000	144.000
987.000	150.000
988.000	153.000
989.000	131.000
990.000	153.000
991.000	145.000
992.000	158.000
993.000	138.000
994.000	133.000
995.000	139.000
996.000	141.000
997.000	133.000
998.000	150.000
999.000	141.000
1000.000	137.000
1001.000	125.000
1002.000	127.000
1003.000	150.000
1004.000	138.000
1005.000	142.000
1006.000	119.000
1007.000	141.000
1008.000	134.000
1009.000	131.000
1010.000	116.000
1011.000	122.000
1012.000	138.000
1013.000	110.000
1014.000	130.000
1015.000	132.000
1016.000	155.000
1017.000	138.000
1018.000	128.000
1019.000	143.000
1020.000	143.000
1021.000	129.000
1022.000	149.000
1023.000	162.000
1024.000	146.000
1025.000	142.000
1026.000	140.000
1027.000	144.000
1028.000	153.000
1029.000	116.000
1030.000	145.000
1031.000	142.000
1032.000	132.000
1033.000	142.000
1034.000	152.000
1035.000	146.000
1036.000	153.000
1037.000	137.000
1038.000	146.000
1039.000	152.000
1040.000	143.000
1041.000	143.000
1042.000	150.000
1043.000	142.000
1044.000	150.000
1045.000	135.000
1046.000	146.000
1047.000	155.000
1048.000	148.000
1049.000	153.000
1050.000	138.000
1051.000	164.000
1052.000	181.000
1053.000	150.000
1054.000	144.000
1055.000	156.000
1056.000	143.000
1057.000	160.000
1058.000	146.000
1059.000	146.000
1060.000	160.000
1061.000	180.000
1062.000	161.000
1063.000	140.000
1064.000	162.000
1065.000	153.000
1066.000	164.000
1067.000	154.000
1068.000	166.000
1069.000	182.000
1070.000	156.000
1071.000	161.000
1072.000	118.000
1073.000	154.000
1074.000	164.000
1075.000	173.000
1076.000	151.000
1077.000	151.000
1078.000	141.000
1079.000	155.000
1080.000	171.000
1081.000	157.000
1082.000	168.000
1083.000	145.000
1084.000	152.000
1085.000	148.000
1086.000	168.000
1087.000	143.000
1088.000	162.000
1089.000	184.000
1090.000	139.000
1091.000	155.000
1092.000	151.000
1093.000	152.000
1094.000	161.000
1095.000	161.000
1096.000	163.000
1097.000	178.000
1098.000	170.000
1099.000	175.000
1100.000	138.000
1101.000	185.000
1102.000	157.000
1103.000	172.000
1104.000	154.000
1105.000	169.000
1106.000	164.000
1107.000	170.000
1108.000	181.000
1109.000	167.000
1110.000	189.000
1111.000	158.000
1112.000	175.000
1113.000	147.000
1114.000	166.000
1115.000	156.000
1116.000	168.000
1117.000	144.000
1118.000	162.000
1119.000	162.000
1120.000	156.000
1121.000	159.000
1122.000	171.000
1123.000	149.000
1124.000	169.000
1125.000	162.000
1126.000	171.000
1127.000	165.000
1128.000	144.000
1129.000	164.000
1130.000	133.000
1131.000	183.000
1132.000	157.000
1133.000	187.000
1134.000	152.000
1135.000	133.000
1136.000	162.000
1137.000	154.000
1138.000	170.000
1139.000	151.000
1140.000	188.000
1141.000	178.000
1142.000	159.000
1143.000	175.000
1144.000	170.000
1145.000	175.000
1146.000	191.000
1147.000	156.000
1148.000	181.000
1149.000	152.000
1150.000	171.000
1151.000	170.000
1152.000	190.000
1153.000	155.000
1154.000	198.000
1155.000	185.000
1156.000	194.000
1157.000	182.000
1158.000	191.000
