Date:	22-Sep-20		Time:	9:34 PM		Version no:	0.00		Project name:	55		Sample name:	222		Section name:	section		Position	1028.540018	mm	E0	0.000000	keV	E1	1.000000	keV/channel	sample surface	6.631691	cm	Tube anode:	Mo		Tube voltage:	30	kV	Tube current:	30	mA	gain	15		std. database			resultfile	result		matrix element	11		sample thickness	1.000000		air passage	0.560000	cm	comments	in position		peaking_time	0.300000	m-sec	trigger_threshold	40.000000	V	mca_bin_width	2.000000	no:	number_mca_channels	2048.000000	no:	gap_time	2048.000000	m-sec	trigger_peaking_time	2048.000000	m-sec	GAINDAC	400		HIGHGAIN	400		TAURC	400		RCTAU	400		RCTAUFRAC	400		livetime	13.456942	seconds	runtime	15.000393	seconds	input_count_rate	45294.169193	cps	output_count_rate	40633.668731	cps	triggers	668858	seconds	events_in_run	593998	seconds	channel	content		1.000	0.000
2.000	0.000
3.000	0.000
4.000	0.000
5.000	0.000
6.000	0.000
7.000	0.000
8.000	0.000
9.000	0.000
10.000	0.000
11.000	0.000
12.000	0.000
13.000	0.000
14.000	0.000
15.000	0.000
16.000	0.000
17.000	0.000
18.000	0.000
19.000	0.000
20.000	0.000
21.000	0.000
22.000	0.000
23.000	0.000
24.000	0.000
25.000	0.000
26.000	0.000
27.000	0.000
28.000	0.000
29.000	0.000
30.000	0.000
31.000	0.000
32.000	0.000
33.000	0.000
34.000	1.000
35.000	0.000
36.000	0.000
37.000	0.000
38.000	0.000
39.000	1.000
40.000	2.000
41.000	0.000
42.000	1.000
43.000	0.000
44.000	0.000
45.000	0.000
46.000	1.000
47.000	3.000
48.000	0.000
49.000	1.000
50.000	1.000
51.000	3.000
52.000	1.000
53.000	1.000
54.000	2.000
55.000	7.000
56.000	7.000
57.000	3.000
58.000	9.000
59.000	22.000
60.000	25.000
61.000	25.000
62.000	29.000
63.000	40.000
64.000	25.000
65.000	25.000
66.000	28.000
67.000	23.000
68.000	16.000
69.000	17.000
70.000	25.000
71.000	33.000
72.000	24.000
73.000	29.000
74.000	26.000
75.000	21.000
76.000	24.000
77.000	21.000
78.000	11.000
79.000	25.000
80.000	21.000
81.000	31.000
82.000	24.000
83.000	27.000
84.000	21.000
85.000	28.000
86.000	20.000
87.000	29.000
88.000	26.000
89.000	31.000
90.000	22.000
91.000	23.000
92.000	31.000
93.000	21.000
94.000	16.000
95.000	21.000
96.000	11.000
97.000	21.000
98.000	24.000
99.000	12.000
100.000	21.000
101.000	23.000
102.000	26.000
103.000	27.000
104.000	31.000
105.000	13.000
106.000	17.000
107.000	24.000
108.000	18.000
109.000	25.000
110.000	15.000
111.000	12.000
112.000	18.000
113.000	17.000
114.000	19.000
115.000	22.000
116.000	15.000
117.000	17.000
118.000	17.000
119.000	12.000
120.000	21.000
121.000	16.000
122.000	17.000
123.000	17.000
124.000	15.000
125.000	15.000
126.000	12.000
127.000	11.000
128.000	16.000
129.000	15.000
130.000	17.000
131.000	8.000
132.000	8.000
133.000	16.000
134.000	12.000
135.000	12.000
136.000	16.000
137.000	15.000
138.000	17.000
139.000	17.000
140.000	11.000
141.000	15.000
142.000	22.000
143.000	21.000
144.000	20.000
145.000	19.000
146.000	34.000
147.000	17.000
148.000	34.000
149.000	27.000
150.000	19.000
151.000	20.000
152.000	22.000
153.000	25.000
154.000	26.000
155.000	21.000
156.000	26.000
157.000	18.000
158.000	24.000
159.000	9.000
160.000	13.000
161.000	10.000
162.000	17.000
163.000	17.000
164.000	25.000
165.000	23.000
166.000	51.000
167.000	54.000
168.000	63.000
169.000	68.000
170.000	67.000
171.000	77.000
172.000	84.000
173.000	74.000
174.000	61.000
175.000	36.000
176.000	44.000
177.000	33.000
178.000	29.000
179.000	32.000
180.000	31.000
181.000	29.000
182.000	40.000
183.000	37.000
184.000	50.000
185.000	79.000
186.000	97.000
187.000	121.000
188.000	150.000
189.000	177.000
190.000	183.000
191.000	187.000
192.000	203.000
193.000	163.000
194.000	129.000
195.000	119.000
196.000	81.000
197.000	58.000
198.000	45.000
199.000	26.000
200.000	19.000
201.000	16.000
202.000	14.000
203.000	14.000
204.000	11.000
205.000	16.000
206.000	10.000
207.000	17.000
208.000	19.000
209.000	14.000
210.000	13.000
211.000	18.000
212.000	17.000
213.000	16.000
214.000	15.000
215.000	13.000
216.000	11.000
217.000	10.000
218.000	27.000
219.000	33.000
220.000	24.000
221.000	34.000
222.000	29.000
223.000	32.000
224.000	34.000
225.000	29.000
226.000	26.000
227.000	25.000
228.000	21.000
229.000	18.000
230.000	10.000
231.000	14.000
232.000	7.000
233.000	21.000
234.000	12.000
235.000	13.000
236.000	13.000
237.000	11.000
238.000	13.000
239.000	14.000
240.000	10.000
241.000	8.000
242.000	20.000
243.000	5.000
244.000	7.000
245.000	19.000
246.000	17.000
247.000	15.000
248.000	25.000
249.000	29.000
250.000	56.000
251.000	52.000
252.000	82.000
253.000	111.000
254.000	133.000
255.000	127.000
256.000	121.000
257.000	130.000
258.000	174.000
259.000	132.000
260.000	118.000
261.000	109.000
262.000	87.000
263.000	67.000
264.000	43.000
265.000	37.000
266.000	18.000
267.000	24.000
268.000	18.000
269.000	19.000
270.000	20.000
271.000	26.000
272.000	20.000
273.000	23.000
274.000	19.000
275.000	22.000
276.000	27.000
277.000	28.000
278.000	35.000
279.000	22.000
280.000	26.000
281.000	25.000
282.000	31.000
283.000	25.000
284.000	41.000
285.000	37.000
286.000	38.000
287.000	35.000
288.000	51.000
289.000	63.000
290.000	59.000
291.000	67.000
292.000	53.000
293.000	55.000
294.000	42.000
295.000	36.000
296.000	31.000
297.000	25.000
298.000	22.000
299.000	24.000
300.000	20.000
301.000	21.000
302.000	11.000
303.000	17.000
304.000	7.000
305.000	17.000
306.000	18.000
307.000	24.000
308.000	20.000
309.000	26.000
310.000	28.000
311.000	36.000
312.000	39.000
313.000	42.000
314.000	49.000
315.000	60.000
316.000	69.000
317.000	108.000
318.000	146.000
319.000	182.000
320.000	236.000
321.000	314.000
322.000	325.000
323.000	382.000
324.000	395.000
325.000	391.000
326.000	378.000
327.000	325.000
328.000	257.000
329.000	235.000
330.000	212.000
331.000	135.000
332.000	101.000
333.000	74.000
334.000	56.000
335.000	56.000
336.000	38.000
337.000	35.000
338.000	32.000
339.000	31.000
340.000	41.000
341.000	51.000
342.000	45.000
343.000	57.000
344.000	77.000
345.000	137.000
346.000	152.000
347.000	229.000
348.000	391.000
349.000	583.000
350.000	836.000
351.000	1334.000
352.000	2061.000
353.000	3026.000
354.000	4419.000
355.000	6039.000
356.000	7533.000
357.000	9738.000
358.000	11591.000
359.000	13018.000
360.000	14274.000
361.000	15086.000
362.000	14835.000
363.000	14185.000
364.000	12834.000
365.000	11027.000
366.000	9159.000
367.000	7064.000
368.000	5402.000
369.000	3838.000
370.000	2687.000
371.000	1740.000
372.000	1141.000
373.000	682.000
374.000	418.000
375.000	260.000
376.000	175.000
377.000	151.000
378.000	118.000
379.000	164.000
380.000	177.000
381.000	224.000
382.000	285.000
383.000	358.000
384.000	488.000
385.000	703.000
386.000	891.000
387.000	1144.000
388.000	1395.000
389.000	1650.000
390.000	1940.000
391.000	2129.000
392.000	2228.000
393.000	2237.000
394.000	2116.000
395.000	2102.000
396.000	1818.000
397.000	1565.000
398.000	1239.000
399.000	1005.000
400.000	766.000
401.000	577.000
402.000	360.000
403.000	233.000
404.000	161.000
405.000	106.000
406.000	63.000
407.000	45.000
408.000	28.000
409.000	20.000
410.000	11.000
411.000	11.000
412.000	18.000
413.000	2.000
414.000	12.000
415.000	6.000
416.000	10.000
417.000	10.000
418.000	4.000
419.000	8.000
420.000	10.000
421.000	6.000
422.000	5.000
423.000	8.000
424.000	10.000
425.000	11.000
426.000	6.000
427.000	16.000
428.000	16.000
429.000	25.000
430.000	39.000
431.000	63.000
432.000	85.000
433.000	103.000
434.000	126.000
435.000	146.000
436.000	162.000
437.000	207.000
438.000	222.000
439.000	263.000
440.000	261.000
441.000	280.000
442.000	271.000
443.000	262.000
444.000	238.000
445.000	220.000
446.000	187.000
447.000	157.000
448.000	116.000
449.000	78.000
450.000	97.000
451.000	56.000
452.000	58.000
453.000	44.000
454.000	51.000
455.000	41.000
456.000	37.000
457.000	37.000
458.000	24.000
459.000	41.000
460.000	27.000
461.000	32.000
462.000	25.000
463.000	27.000
464.000	22.000
465.000	18.000
466.000	22.000
467.000	17.000
468.000	29.000
469.000	25.000
470.000	25.000
471.000	29.000
472.000	30.000
473.000	30.000
474.000	43.000
475.000	43.000
476.000	52.000
477.000	50.000
478.000	54.000
479.000	60.000
480.000	70.000
481.000	66.000
482.000	64.000
483.000	57.000
484.000	61.000
485.000	58.000
486.000	51.000
487.000	48.000
488.000	54.000
489.000	28.000
490.000	32.000
491.000	28.000
492.000	31.000
493.000	20.000
494.000	19.000
495.000	17.000
496.000	17.000
497.000	21.000
498.000	15.000
499.000	19.000
500.000	18.000
501.000	21.000
502.000	21.000
503.000	16.000
504.000	20.000
505.000	17.000
506.000	19.000
507.000	19.000
508.000	30.000
509.000	19.000
510.000	22.000
511.000	18.000
512.000	19.000
513.000	24.000
514.000	25.000
515.000	30.000
516.000	36.000
517.000	24.000
518.000	26.000
519.000	29.000
520.000	22.000
521.000	30.000
522.000	30.000
523.000	41.000
524.000	46.000
525.000	47.000
526.000	47.000
527.000	50.000
528.000	51.000
529.000	42.000
530.000	58.000
531.000	50.000
532.000	44.000
533.000	33.000
534.000	39.000
535.000	31.000
536.000	31.000
537.000	32.000
538.000	33.000
539.000	29.000
540.000	35.000
541.000	26.000
542.000	20.000
543.000	21.000
544.000	26.000
545.000	32.000
546.000	26.000
547.000	30.000
548.000	25.000
549.000	23.000
550.000	22.000
551.000	17.000
552.000	34.000
553.000	21.000
554.000	26.000
555.000	35.000
556.000	25.000
557.000	25.000
558.000	29.000
559.000	31.000
560.000	32.000
561.000	37.000
562.000	43.000
563.000	45.000
564.000	47.000
565.000	49.000
566.000	39.000
567.000	68.000
568.000	70.000
569.000	95.000
570.000	107.000
571.000	138.000
572.000	147.000
573.000	161.000
574.000	174.000
575.000	167.000
576.000	177.000
577.000	156.000
578.000	173.000
579.000	127.000
580.000	122.000
581.000	114.000
582.000	104.000
583.000	91.000
584.000	87.000
585.000	68.000
586.000	61.000
587.000	60.000
588.000	40.000
589.000	46.000
590.000	30.000
591.000	22.000
592.000	26.000
593.000	44.000
594.000	32.000
595.000	38.000
596.000	43.000
597.000	30.000
598.000	46.000
599.000	38.000
600.000	28.000
601.000	46.000
602.000	45.000
603.000	50.000
604.000	62.000
605.000	60.000
606.000	86.000
607.000	120.000
608.000	125.000
609.000	178.000
610.000	274.000
611.000	370.000
612.000	551.000
613.000	725.000
614.000	1004.000
615.000	1305.000
616.000	1856.000
617.000	2229.000
618.000	2891.000
619.000	3544.000
620.000	4179.000
621.000	4784.000
622.000	5349.000
623.000	6019.000
624.000	6181.000
625.000	6536.000
626.000	6254.000
627.000	6114.000
628.000	5789.000
629.000	5146.000
630.000	4623.000
631.000	3948.000
632.000	3275.000
633.000	2691.000
634.000	2037.000
635.000	1656.000
636.000	1169.000
637.000	867.000
638.000	677.000
639.000	452.000
640.000	324.000
641.000	205.000
642.000	174.000
643.000	150.000
644.000	101.000
645.000	92.000
646.000	62.000
647.000	64.000
648.000	75.000
649.000	51.000
650.000	55.000
651.000	69.000
652.000	61.000
653.000	59.000
654.000	64.000
655.000	58.000
656.000	49.000
657.000	55.000
658.000	65.000
659.000	53.000
660.000	67.000
661.000	57.000
662.000	79.000
663.000	68.000
664.000	66.000
665.000	61.000
666.000	84.000
667.000	68.000
668.000	78.000
669.000	80.000
670.000	85.000
671.000	94.000
672.000	106.000
673.000	119.000
674.000	117.000
675.000	144.000
676.000	199.000
677.000	218.000
678.000	287.000
679.000	365.000
680.000	395.000
681.000	499.000
682.000	534.000
683.000	704.000
684.000	755.000
685.000	851.000
686.000	977.000
687.000	1024.000
688.000	1016.000
689.000	1026.000
690.000	1009.000
691.000	1017.000
692.000	1002.000
693.000	823.000
694.000	748.000
695.000	654.000
696.000	567.000
697.000	525.000
698.000	411.000
699.000	325.000
700.000	244.000
701.000	196.000
702.000	176.000
703.000	134.000
704.000	108.000
705.000	101.000
706.000	73.000
707.000	54.000
708.000	65.000
709.000	65.000
710.000	60.000
711.000	66.000
712.000	62.000
713.000	62.000
714.000	52.000
715.000	57.000
716.000	70.000
717.000	71.000
718.000	72.000
719.000	72.000
720.000	60.000
721.000	81.000
722.000	80.000
723.000	86.000
724.000	92.000
725.000	94.000
726.000	106.000
727.000	68.000
728.000	89.000
729.000	85.000
730.000	72.000
731.000	87.000
732.000	81.000
733.000	73.000
734.000	84.000
735.000	76.000
736.000	68.000
737.000	69.000
738.000	61.000
739.000	73.000
740.000	68.000
741.000	77.000
742.000	57.000
743.000	64.000
744.000	77.000
745.000	67.000
746.000	66.000
747.000	55.000
748.000	69.000
749.000	79.000
750.000	87.000
751.000	68.000
752.000	69.000
753.000	48.000
754.000	59.000
755.000	73.000
756.000	73.000
757.000	66.000
758.000	71.000
759.000	68.000
760.000	69.000
761.000	50.000
762.000	73.000
763.000	75.000
764.000	78.000
765.000	70.000
766.000	73.000
767.000	63.000
768.000	62.000
769.000	79.000
770.000	57.000
771.000	68.000
772.000	77.000
773.000	62.000
774.000	91.000
775.000	84.000
776.000	91.000
777.000	92.000
778.000	92.000
779.000	99.000
780.000	94.000
781.000	109.000
782.000	109.000
783.000	132.000
784.000	130.000
785.000	132.000
786.000	137.000
787.000	142.000
788.000	130.000
789.000	136.000
790.000	166.000
791.000	141.000
792.000	156.000
793.000	152.000
794.000	152.000
795.000	140.000
796.000	128.000
797.000	141.000
798.000	129.000
799.000	138.000
800.000	153.000
801.000	136.000
802.000	144.000
803.000	128.000
804.000	154.000
805.000	137.000
806.000	163.000
807.000	142.000
808.000	178.000
809.000	153.000
810.000	193.000
811.000	203.000
812.000	252.000
813.000	221.000
814.000	235.000
815.000	249.000
816.000	243.000
817.000	266.000
818.000	268.000
819.000	319.000
820.000	285.000
821.000	260.000
822.000	288.000
823.000	271.000
824.000	226.000
825.000	215.000
826.000	223.000
827.000	189.000
828.000	205.000
829.000	180.000
830.000	150.000
831.000	125.000
832.000	128.000
833.000	128.000
834.000	130.000
835.000	136.000
836.000	136.000
837.000	112.000
838.000	142.000
839.000	127.000
840.000	122.000
841.000	131.000
842.000	125.000
843.000	132.000
844.000	136.000
845.000	138.000
846.000	118.000
847.000	132.000
848.000	145.000
849.000	129.000
850.000	129.000
851.000	127.000
852.000	132.000
853.000	104.000
854.000	115.000
855.000	112.000
856.000	128.000
857.000	116.000
858.000	101.000
859.000	130.000
860.000	117.000
861.000	115.000
862.000	103.000
863.000	130.000
864.000	117.000
865.000	126.000
866.000	117.000
867.000	101.000
868.000	110.000
869.000	119.000
870.000	125.000
871.000	111.000
872.000	121.000
873.000	94.000
874.000	114.000
875.000	123.000
876.000	119.000
877.000	127.000
878.000	144.000
879.000	105.000
880.000	117.000
881.000	108.000
882.000	115.000
883.000	107.000
884.000	130.000
885.000	103.000
886.000	145.000
887.000	118.000
888.000	122.000
889.000	117.000
890.000	133.000
891.000	120.000
892.000	130.000
893.000	160.000
894.000	114.000
895.000	126.000
896.000	133.000
897.000	143.000
898.000	138.000
899.000	123.000
900.000	149.000
901.000	157.000
902.000	150.000
903.000	155.000
904.000	158.000
905.000	153.000
906.000	133.000
907.000	145.000
908.000	141.000
909.000	166.000
910.000	149.000
911.000	173.000
912.000	170.000
913.000	180.000
914.000	162.000
915.000	178.000
916.000	166.000
917.000	186.000
918.000	187.000
919.000	167.000
920.000	184.000
921.000	178.000
922.000	181.000
923.000	182.000
924.000	182.000
925.000	186.000
926.000	170.000
927.000	179.000
928.000	184.000
929.000	198.000
930.000	202.000
931.000	192.000
932.000	201.000
933.000	208.000
934.000	201.000
935.000	216.000
936.000	211.000
937.000	217.000
938.000	236.000
939.000	213.000
940.000	224.000
941.000	240.000
942.000	252.000
943.000	241.000
944.000	251.000
945.000	281.000
946.000	302.000
947.000	218.000
948.000	256.000
949.000	241.000
950.000	232.000
951.000	189.000
952.000	210.000
953.000	207.000
954.000	191.000
955.000	176.000
956.000	205.000
957.000	178.000
958.000	169.000
959.000	209.000
960.000	154.000
961.000	187.000
962.000	195.000
963.000	174.000
964.000	168.000
965.000	159.000
966.000	189.000
967.000	181.000
968.000	184.000
969.000	187.000
970.000	192.000
971.000	182.000
972.000	183.000
973.000	171.000
974.000	167.000
975.000	179.000
976.000	159.000
977.000	179.000
978.000	187.000
979.000	185.000
980.000	163.000
981.000	156.000
982.000	163.000
983.000	177.000
984.000	143.000
985.000	124.000
986.000	138.000
987.000	148.000
988.000	152.000
989.000	134.000
990.000	150.000
991.000	146.000
992.000	154.000
993.000	130.000
994.000	151.000
995.000	135.000
996.000	141.000
997.000	140.000
998.000	119.000
999.000	122.000
1000.000	129.000
1001.000	118.000
1002.000	132.000
1003.000	129.000
1004.000	126.000
1005.000	115.000
1006.000	124.000
1007.000	126.000
1008.000	130.000
1009.000	145.000
1010.000	146.000
1011.000	118.000
1012.000	145.000
1013.000	141.000
1014.000	130.000
1015.000	150.000
1016.000	131.000
1017.000	127.000
1018.000	123.000
1019.000	136.000
1020.000	106.000
1021.000	140.000
1022.000	150.000
1023.000	162.000
1024.000	142.000
1025.000	127.000
1026.000	142.000
1027.000	130.000
1028.000	133.000
1029.000	152.000
1030.000	147.000
1031.000	160.000
1032.000	148.000
1033.000	136.000
1034.000	129.000
1035.000	154.000
1036.000	137.000
1037.000	117.000
1038.000	155.000
1039.000	141.000
1040.000	131.000
1041.000	146.000
1042.000	136.000
1043.000	126.000
1044.000	155.000
1045.000	142.000
1046.000	121.000
1047.000	143.000
1048.000	139.000
1049.000	169.000
1050.000	136.000
1051.000	138.000
1052.000	151.000
1053.000	159.000
1054.000	144.000
1055.000	166.000
1056.000	165.000
1057.000	145.000
1058.000	130.000
1059.000	167.000
1060.000	154.000
1061.000	161.000
1062.000	146.000
1063.000	166.000
1064.000	172.000
1065.000	137.000
1066.000	161.000
1067.000	189.000
1068.000	142.000
1069.000	152.000
1070.000	153.000
1071.000	175.000
1072.000	152.000
1073.000	169.000
1074.000	140.000
1075.000	161.000
1076.000	168.000
1077.000	165.000
1078.000	163.000
1079.000	178.000
1080.000	137.000
1081.000	161.000
1082.000	172.000
1083.000	159.000
1084.000	164.000
1085.000	158.000
1086.000	176.000
1087.000	161.000
1088.000	152.000
1089.000	159.000
1090.000	153.000
1091.000	163.000
1092.000	187.000
1093.000	163.000
1094.000	152.000
1095.000	149.000
1096.000	175.000
1097.000	171.000
1098.000	145.000
1099.000	165.000
1100.000	167.000
1101.000	164.000
1102.000	182.000
1103.000	182.000
1104.000	176.000
1105.000	192.000
1106.000	158.000
1107.000	179.000
1108.000	168.000
1109.000	165.000
1110.000	141.000
1111.000	167.000
1112.000	162.000
1113.000	174.000
1114.000	192.000
1115.000	169.000
1116.000	128.000
1117.000	162.000
1118.000	172.000
1119.000	151.000
1120.000	166.000
1121.000	159.000
1122.000	175.000
1123.000	159.000
1124.000	127.000
1125.000	148.000
1126.000	147.000
1127.000	147.000
1128.000	173.000
1129.000	158.000
1130.000	171.000
1131.000	146.000
1132.000	153.000
1133.000	161.000
1134.000	186.000
1135.000	166.000
1136.000	173.000
1137.000	152.000
1138.000	153.000
1139.000	165.000
1140.000	157.000
1141.000	165.000
1142.000	153.000
1143.000	192.000
1144.000	148.000
1145.000	165.000
1146.000	175.000
1147.000	168.000
1148.000	171.000
1149.000	156.000
1150.000	170.000
1151.000	176.000
1152.000	189.000
1153.000	188.000
1154.000	198.000
1155.000	161.000
1156.000	201.000
