Date:	22-Sep-20		Time:	9:01 PM		Version no:	0.00		Project name:	55		Sample name:	222		Section name:	section		Position	907.540018	mm	E0	0.000000	keV	E1	1.000000	keV/channel	sample surface	6.505272	cm	Tube anode:	Mo		Tube voltage:	30	kV	Tube current:	30	mA	gain	15		std. database			resultfile	result		matrix element	11		sample thickness	1.000000		air passage	0.560000	cm	comments	in position		peaking_time	0.300000	m-sec	trigger_threshold	40.000000	V	mca_bin_width	2.000000	no:	number_mca_channels	2048.000000	no:	gap_time	2048.000000	m-sec	trigger_peaking_time	2048.000000	m-sec	GAINDAC	400		HIGHGAIN	400		TAURC	400		RCTAU	400		RCTAUFRAC	400		livetime	13.515999	seconds	runtime	15.000174	seconds	input_count_rate	45653.599722	cps	output_count_rate	41136.456150	cps	triggers	674531	seconds	events_in_run	602720	seconds	channel	content		1.000	0.000
2.000	0.000
3.000	0.000
4.000	0.000
5.000	0.000
6.000	0.000
7.000	0.000
8.000	0.000
9.000	0.000
10.000	0.000
11.000	0.000
12.000	0.000
13.000	0.000
14.000	0.000
15.000	0.000
16.000	0.000
17.000	0.000
18.000	0.000
19.000	0.000
20.000	0.000
21.000	0.000
22.000	0.000
23.000	0.000
24.000	0.000
25.000	0.000
26.000	0.000
27.000	0.000
28.000	0.000
29.000	0.000
30.000	0.000
31.000	1.000
32.000	0.000
33.000	0.000
34.000	1.000
35.000	1.000
36.000	0.000
37.000	0.000
38.000	0.000
39.000	0.000
40.000	0.000
41.000	1.000
42.000	1.000
43.000	0.000
44.000	2.000
45.000	0.000
46.000	1.000
47.000	1.000
48.000	0.000
49.000	1.000
50.000	0.000
51.000	3.000
52.000	2.000
53.000	6.000
54.000	5.000
55.000	6.000
56.000	5.000
57.000	8.000
58.000	20.000
59.000	12.000
60.000	20.000
61.000	18.000
62.000	15.000
63.000	26.000
64.000	26.000
65.000	19.000
66.000	25.000
67.000	24.000
68.000	23.000
69.000	25.000
70.000	29.000
71.000	21.000
72.000	20.000
73.000	17.000
74.000	29.000
75.000	22.000
76.000	25.000
77.000	22.000
78.000	24.000
79.000	23.000
80.000	20.000
81.000	36.000
82.000	21.000
83.000	23.000
84.000	24.000
85.000	33.000
86.000	25.000
87.000	14.000
88.000	15.000
89.000	24.000
90.000	23.000
91.000	20.000
92.000	24.000
93.000	19.000
94.000	22.000
95.000	13.000
96.000	17.000
97.000	24.000
98.000	19.000
99.000	25.000
100.000	34.000
101.000	27.000
102.000	23.000
103.000	13.000
104.000	24.000
105.000	20.000
106.000	20.000
107.000	17.000
108.000	18.000
109.000	22.000
110.000	11.000
111.000	19.000
112.000	21.000
113.000	16.000
114.000	15.000
115.000	21.000
116.000	18.000
117.000	16.000
118.000	16.000
119.000	22.000
120.000	14.000
121.000	17.000
122.000	16.000
123.000	11.000
124.000	24.000
125.000	13.000
126.000	11.000
127.000	20.000
128.000	15.000
129.000	18.000
130.000	19.000
131.000	14.000
132.000	19.000
133.000	17.000
134.000	15.000
135.000	18.000
136.000	22.000
137.000	10.000
138.000	15.000
139.000	20.000
140.000	19.000
141.000	25.000
142.000	24.000
143.000	22.000
144.000	25.000
145.000	25.000
146.000	20.000
147.000	27.000
148.000	28.000
149.000	21.000
150.000	11.000
151.000	18.000
152.000	12.000
153.000	17.000
154.000	21.000
155.000	19.000
156.000	10.000
157.000	15.000
158.000	11.000
159.000	8.000
160.000	15.000
161.000	15.000
162.000	10.000
163.000	18.000
164.000	18.000
165.000	21.000
166.000	44.000
167.000	32.000
168.000	52.000
169.000	53.000
170.000	61.000
171.000	56.000
172.000	64.000
173.000	60.000
174.000	54.000
175.000	40.000
176.000	33.000
177.000	33.000
178.000	27.000
179.000	33.000
180.000	26.000
181.000	30.000
182.000	39.000
183.000	54.000
184.000	56.000
185.000	93.000
186.000	120.000
187.000	128.000
188.000	176.000
189.000	191.000
190.000	244.000
191.000	198.000
192.000	206.000
193.000	184.000
194.000	150.000
195.000	122.000
196.000	98.000
197.000	81.000
198.000	37.000
199.000	35.000
200.000	32.000
201.000	20.000
202.000	15.000
203.000	12.000
204.000	10.000
205.000	16.000
206.000	18.000
207.000	11.000
208.000	9.000
209.000	11.000
210.000	11.000
211.000	20.000
212.000	15.000
213.000	20.000
214.000	16.000
215.000	18.000
216.000	17.000
217.000	25.000
218.000	30.000
219.000	33.000
220.000	44.000
221.000	44.000
222.000	35.000
223.000	44.000
224.000	56.000
225.000	32.000
226.000	37.000
227.000	33.000
228.000	28.000
229.000	16.000
230.000	24.000
231.000	23.000
232.000	18.000
233.000	18.000
234.000	13.000
235.000	16.000
236.000	6.000
237.000	12.000
238.000	13.000
239.000	5.000
240.000	9.000
241.000	9.000
242.000	14.000
243.000	14.000
244.000	17.000
245.000	13.000
246.000	20.000
247.000	13.000
248.000	28.000
249.000	29.000
250.000	43.000
251.000	52.000
252.000	82.000
253.000	124.000
254.000	108.000
255.000	132.000
256.000	165.000
257.000	142.000
258.000	168.000
259.000	143.000
260.000	123.000
261.000	97.000
262.000	75.000
263.000	72.000
264.000	40.000
265.000	32.000
266.000	29.000
267.000	24.000
268.000	18.000
269.000	20.000
270.000	28.000
271.000	28.000
272.000	23.000
273.000	25.000
274.000	27.000
275.000	27.000
276.000	30.000
277.000	34.000
278.000	31.000
279.000	29.000
280.000	23.000
281.000	33.000
282.000	27.000
283.000	30.000
284.000	27.000
285.000	33.000
286.000	47.000
287.000	42.000
288.000	50.000
289.000	54.000
290.000	73.000
291.000	49.000
292.000	59.000
293.000	52.000
294.000	42.000
295.000	35.000
296.000	31.000
297.000	23.000
298.000	24.000
299.000	29.000
300.000	23.000
301.000	17.000
302.000	22.000
303.000	14.000
304.000	17.000
305.000	26.000
306.000	21.000
307.000	23.000
308.000	26.000
309.000	31.000
310.000	21.000
311.000	29.000
312.000	41.000
313.000	42.000
314.000	39.000
315.000	42.000
316.000	62.000
317.000	92.000
318.000	105.000
319.000	135.000
320.000	163.000
321.000	198.000
322.000	182.000
323.000	228.000
324.000	243.000
325.000	195.000
326.000	226.000
327.000	181.000
328.000	167.000
329.000	145.000
330.000	125.000
331.000	79.000
332.000	60.000
333.000	58.000
334.000	53.000
335.000	43.000
336.000	28.000
337.000	25.000
338.000	25.000
339.000	32.000
340.000	30.000
341.000	51.000
342.000	56.000
343.000	74.000
344.000	89.000
345.000	108.000
346.000	158.000
347.000	255.000
348.000	406.000
349.000	610.000
350.000	1001.000
351.000	1564.000
352.000	2331.000
353.000	3495.000
354.000	5012.000
355.000	6787.000
356.000	8993.000
357.000	11076.000
358.000	13345.000
359.000	15412.000
360.000	16684.000
361.000	17610.000
362.000	17145.000
363.000	16336.000
364.000	14863.000
365.000	12852.000
366.000	10513.000
367.000	8247.000
368.000	6367.000
369.000	4634.000
370.000	3182.000
371.000	2072.000
372.000	1276.000
373.000	803.000
374.000	461.000
375.000	284.000
376.000	191.000
377.000	183.000
378.000	148.000
379.000	165.000
380.000	182.000
381.000	235.000
382.000	345.000
383.000	424.000
384.000	578.000
385.000	719.000
386.000	1024.000
387.000	1324.000
388.000	1585.000
389.000	1987.000
390.000	2238.000
391.000	2496.000
392.000	2552.000
393.000	2564.000
394.000	2573.000
395.000	2382.000
396.000	2186.000
397.000	1751.000
398.000	1480.000
399.000	1155.000
400.000	823.000
401.000	619.000
402.000	406.000
403.000	270.000
404.000	153.000
405.000	113.000
406.000	66.000
407.000	62.000
408.000	22.000
409.000	25.000
410.000	11.000
411.000	15.000
412.000	13.000
413.000	14.000
414.000	6.000
415.000	4.000
416.000	5.000
417.000	3.000
418.000	8.000
419.000	7.000
420.000	4.000
421.000	8.000
422.000	7.000
423.000	10.000
424.000	16.000
425.000	11.000
426.000	8.000
427.000	15.000
428.000	19.000
429.000	25.000
430.000	36.000
431.000	50.000
432.000	58.000
433.000	122.000
434.000	119.000
435.000	164.000
436.000	186.000
437.000	282.000
438.000	314.000
439.000	328.000
440.000	386.000
441.000	343.000
442.000	350.000
443.000	322.000
444.000	322.000
445.000	259.000
446.000	254.000
447.000	199.000
448.000	164.000
449.000	119.000
450.000	85.000
451.000	77.000
452.000	66.000
453.000	51.000
454.000	44.000
455.000	34.000
456.000	37.000
457.000	37.000
458.000	27.000
459.000	27.000
460.000	26.000
461.000	26.000
462.000	20.000
463.000	23.000
464.000	21.000
465.000	21.000
466.000	25.000
467.000	20.000
468.000	20.000
469.000	19.000
470.000	19.000
471.000	30.000
472.000	30.000
473.000	34.000
474.000	22.000
475.000	43.000
476.000	41.000
477.000	56.000
478.000	44.000
479.000	56.000
480.000	74.000
481.000	92.000
482.000	82.000
483.000	66.000
484.000	79.000
485.000	69.000
486.000	62.000
487.000	65.000
488.000	41.000
489.000	47.000
490.000	42.000
491.000	28.000
492.000	17.000
493.000	18.000
494.000	19.000
495.000	18.000
496.000	13.000
497.000	17.000
498.000	10.000
499.000	17.000
500.000	18.000
501.000	9.000
502.000	16.000
503.000	19.000
504.000	13.000
505.000	13.000
506.000	23.000
507.000	21.000
508.000	20.000
509.000	17.000
510.000	16.000
511.000	21.000
512.000	20.000
513.000	17.000
514.000	13.000
515.000	30.000
516.000	31.000
517.000	34.000
518.000	31.000
519.000	22.000
520.000	28.000
521.000	30.000
522.000	37.000
523.000	40.000
524.000	34.000
525.000	38.000
526.000	45.000
527.000	54.000
528.000	49.000
529.000	45.000
530.000	56.000
531.000	45.000
532.000	40.000
533.000	39.000
534.000	25.000
535.000	35.000
536.000	34.000
537.000	20.000
538.000	18.000
539.000	29.000
540.000	31.000
541.000	19.000
542.000	25.000
543.000	24.000
544.000	24.000
545.000	17.000
546.000	18.000
547.000	22.000
548.000	12.000
549.000	21.000
550.000	19.000
551.000	27.000
552.000	21.000
553.000	19.000
554.000	23.000
555.000	29.000
556.000	34.000
557.000	22.000
558.000	30.000
559.000	19.000
560.000	23.000
561.000	27.000
562.000	33.000
563.000	36.000
564.000	38.000
565.000	41.000
566.000	44.000
567.000	54.000
568.000	58.000
569.000	65.000
570.000	78.000
571.000	73.000
572.000	98.000
573.000	107.000
574.000	119.000
575.000	109.000
576.000	133.000
577.000	152.000
578.000	126.000
579.000	112.000
580.000	106.000
581.000	90.000
582.000	101.000
583.000	72.000
584.000	55.000
585.000	61.000
586.000	43.000
587.000	42.000
588.000	32.000
589.000	34.000
590.000	31.000
591.000	22.000
592.000	30.000
593.000	21.000
594.000	33.000
595.000	26.000
596.000	25.000
597.000	40.000
598.000	37.000
599.000	40.000
600.000	33.000
601.000	42.000
602.000	46.000
603.000	49.000
604.000	66.000
605.000	60.000
606.000	78.000
607.000	83.000
608.000	127.000
609.000	172.000
610.000	232.000
611.000	351.000
612.000	460.000
613.000	716.000
614.000	960.000
615.000	1294.000
616.000	1699.000
617.000	2184.000
618.000	2727.000
619.000	3351.000
620.000	4117.000
621.000	4748.000
622.000	5260.000
623.000	5886.000
624.000	6085.000
625.000	6272.000
626.000	6115.000
627.000	5877.000
628.000	5426.000
629.000	5110.000
630.000	4425.000
631.000	3923.000
632.000	3130.000
633.000	2603.000
634.000	2031.000
635.000	1545.000
636.000	1121.000
637.000	832.000
638.000	604.000
639.000	431.000
640.000	295.000
641.000	211.000
642.000	149.000
643.000	101.000
644.000	74.000
645.000	71.000
646.000	64.000
647.000	72.000
648.000	62.000
649.000	63.000
650.000	59.000
651.000	61.000
652.000	51.000
653.000	65.000
654.000	50.000
655.000	68.000
656.000	43.000
657.000	58.000
658.000	45.000
659.000	57.000
660.000	51.000
661.000	54.000
662.000	62.000
663.000	65.000
664.000	69.000
665.000	49.000
666.000	89.000
667.000	64.000
668.000	90.000
669.000	72.000
670.000	84.000
671.000	104.000
672.000	94.000
673.000	116.000
674.000	126.000
675.000	152.000
676.000	188.000
677.000	221.000
678.000	293.000
679.000	315.000
680.000	418.000
681.000	493.000
682.000	533.000
683.000	654.000
684.000	734.000
685.000	836.000
686.000	931.000
687.000	955.000
688.000	958.000
689.000	990.000
690.000	1020.000
691.000	949.000
692.000	916.000
693.000	816.000
694.000	793.000
695.000	616.000
696.000	566.000
697.000	469.000
698.000	348.000
699.000	322.000
700.000	250.000
701.000	201.000
702.000	170.000
703.000	121.000
704.000	104.000
705.000	97.000
706.000	69.000
707.000	70.000
708.000	60.000
709.000	53.000
710.000	61.000
711.000	63.000
712.000	58.000
713.000	62.000
714.000	55.000
715.000	55.000
716.000	51.000
717.000	56.000
718.000	61.000
719.000	58.000
720.000	76.000
721.000	85.000
722.000	63.000
723.000	73.000
724.000	80.000
725.000	80.000
726.000	94.000
727.000	89.000
728.000	84.000
729.000	92.000
730.000	86.000
731.000	86.000
732.000	85.000
733.000	80.000
734.000	63.000
735.000	82.000
736.000	68.000
737.000	70.000
738.000	66.000
739.000	74.000
740.000	70.000
741.000	63.000
742.000	58.000
743.000	71.000
744.000	63.000
745.000	69.000
746.000	53.000
747.000	65.000
748.000	53.000
749.000	69.000
750.000	49.000
751.000	68.000
752.000	48.000
753.000	56.000
754.000	57.000
755.000	52.000
756.000	55.000
757.000	63.000
758.000	57.000
759.000	61.000
760.000	66.000
761.000	58.000
762.000	60.000
763.000	71.000
764.000	62.000
765.000	82.000
766.000	75.000
767.000	68.000
768.000	70.000
769.000	67.000
770.000	63.000
771.000	97.000
772.000	100.000
773.000	58.000
774.000	63.000
775.000	90.000
776.000	90.000
777.000	90.000
778.000	93.000
779.000	102.000
780.000	96.000
781.000	104.000
782.000	100.000
783.000	113.000
784.000	109.000
785.000	108.000
786.000	128.000
787.000	137.000
788.000	118.000
789.000	155.000
790.000	114.000
791.000	142.000
792.000	116.000
793.000	111.000
794.000	132.000
795.000	145.000
796.000	129.000
797.000	135.000
798.000	116.000
799.000	126.000
800.000	141.000
801.000	127.000
802.000	137.000
803.000	147.000
804.000	144.000
805.000	146.000
806.000	127.000
807.000	158.000
808.000	165.000
809.000	144.000
810.000	151.000
811.000	195.000
812.000	196.000
813.000	209.000
814.000	203.000
815.000	225.000
816.000	232.000
817.000	241.000
818.000	261.000
819.000	215.000
820.000	247.000
821.000	262.000
822.000	241.000
823.000	242.000
824.000	217.000
825.000	220.000
826.000	166.000
827.000	204.000
828.000	174.000
829.000	166.000
830.000	169.000
831.000	139.000
832.000	137.000
833.000	115.000
834.000	115.000
835.000	115.000
836.000	113.000
837.000	93.000
838.000	103.000
839.000	124.000
840.000	140.000
841.000	141.000
842.000	113.000
843.000	114.000
844.000	123.000
845.000	110.000
846.000	119.000
847.000	126.000
848.000	108.000
849.000	100.000
850.000	147.000
851.000	109.000
852.000	109.000
853.000	114.000
854.000	88.000
855.000	107.000
856.000	92.000
857.000	100.000
858.000	114.000
859.000	94.000
860.000	107.000
861.000	125.000
862.000	103.000
863.000	100.000
864.000	106.000
865.000	103.000
866.000	105.000
867.000	81.000
868.000	97.000
869.000	116.000
870.000	112.000
871.000	112.000
872.000	120.000
873.000	106.000
874.000	111.000
875.000	95.000
876.000	119.000
877.000	94.000
878.000	109.000
879.000	115.000
880.000	101.000
881.000	102.000
882.000	93.000
883.000	98.000
884.000	108.000
885.000	102.000
886.000	117.000
887.000	110.000
888.000	84.000
889.000	106.000
890.000	97.000
891.000	117.000
892.000	126.000
893.000	120.000
894.000	102.000
895.000	141.000
896.000	109.000
897.000	102.000
898.000	122.000
899.000	118.000
900.000	133.000
901.000	133.000
902.000	139.000
903.000	141.000
904.000	128.000
905.000	164.000
906.000	134.000
907.000	134.000
908.000	155.000
909.000	147.000
910.000	142.000
911.000	151.000
912.000	156.000
913.000	158.000
914.000	150.000
915.000	160.000
916.000	133.000
917.000	154.000
918.000	168.000
919.000	151.000
920.000	152.000
921.000	175.000
922.000	182.000
923.000	165.000
924.000	178.000
925.000	143.000
926.000	175.000
927.000	163.000
928.000	171.000
929.000	155.000
930.000	196.000
931.000	192.000
932.000	180.000
933.000	198.000
934.000	187.000
935.000	233.000
936.000	205.000
937.000	233.000
938.000	228.000
939.000	242.000
940.000	237.000
941.000	181.000
942.000	247.000
943.000	251.000
944.000	254.000
945.000	243.000
946.000	235.000
947.000	231.000
948.000	213.000
949.000	227.000
950.000	190.000
951.000	195.000
952.000	189.000
953.000	184.000
954.000	186.000
955.000	176.000
956.000	159.000
957.000	170.000
958.000	147.000
959.000	168.000
960.000	153.000
961.000	166.000
962.000	159.000
963.000	178.000
964.000	171.000
965.000	169.000
966.000	171.000
967.000	166.000
968.000	167.000
969.000	176.000
970.000	166.000
971.000	165.000
972.000	204.000
973.000	180.000
974.000	165.000
975.000	147.000
976.000	150.000
977.000	157.000
978.000	158.000
979.000	148.000
980.000	156.000
981.000	154.000
982.000	156.000
983.000	128.000
984.000	144.000
985.000	140.000
986.000	134.000
987.000	125.000
988.000	139.000
989.000	132.000
990.000	120.000
991.000	133.000
992.000	142.000
993.000	141.000
994.000	136.000
995.000	142.000
996.000	126.000
997.000	138.000
998.000	111.000
999.000	119.000
1000.000	125.000
1001.000	132.000
1002.000	124.000
1003.000	121.000
1004.000	121.000
1005.000	142.000
1006.000	132.000
1007.000	121.000
1008.000	132.000
1009.000	104.000
1010.000	122.000
1011.000	121.000
1012.000	118.000
1013.000	118.000
1014.000	123.000
1015.000	126.000
1016.000	105.000
1017.000	117.000
1018.000	130.000
1019.000	130.000
1020.000	135.000
1021.000	118.000
1022.000	131.000
1023.000	155.000
1024.000	126.000
1025.000	146.000
1026.000	117.000
1027.000	124.000
1028.000	112.000
1029.000	119.000
1030.000	135.000
1031.000	147.000
1032.000	122.000
1033.000	125.000
1034.000	124.000
1035.000	136.000
1036.000	125.000
1037.000	122.000
1038.000	124.000
1039.000	125.000
1040.000	133.000
1041.000	126.000
1042.000	131.000
1043.000	120.000
1044.000	122.000
1045.000	139.000
1046.000	136.000
1047.000	136.000
1048.000	140.000
1049.000	134.000
1050.000	142.000
1051.000	135.000
1052.000	124.000
1053.000	138.000
1054.000	136.000
1055.000	137.000
1056.000	165.000
1057.000	152.000
1058.000	130.000
1059.000	147.000
1060.000	154.000
1061.000	131.000
1062.000	128.000
1063.000	158.000
1064.000	148.000
1065.000	177.000
1066.000	137.000
1067.000	155.000
1068.000	132.000
1069.000	142.000
1070.000	129.000
1071.000	173.000
1072.000	143.000
1073.000	143.000
1074.000	156.000
1075.000	146.000
1076.000	164.000
1077.000	141.000
1078.000	137.000
1079.000	151.000
1080.000	145.000
1081.000	149.000
1082.000	145.000
1083.000	139.000
1084.000	142.000
1085.000	136.000
1086.000	141.000
1087.000	130.000
1088.000	147.000
1089.000	153.000
1090.000	163.000
1091.000	147.000
1092.000	171.000
1093.000	167.000
1094.000	162.000
1095.000	157.000
1096.000	180.000
1097.000	168.000
1098.000	166.000
1099.000	168.000
1100.000	174.000
1101.000	162.000
1102.000	165.000
1103.000	164.000
1104.000	145.000
1105.000	151.000
1106.000	152.000
1107.000	162.000
1108.000	152.000
1109.000	179.000
1110.000	164.000
1111.000	144.000
1112.000	138.000
1113.000	152.000
1114.000	132.000
1115.000	168.000
1116.000	141.000
1117.000	162.000
1118.000	156.000
1119.000	131.000
1120.000	165.000
1121.000	136.000
1122.000	127.000
1123.000	160.000
1124.000	148.000
1125.000	143.000
1126.000	150.000
1127.000	136.000
1128.000	154.000
1129.000	138.000
1130.000	136.000
1131.000	145.000
1132.000	147.000
1133.000	154.000
1134.000	139.000
1135.000	145.000
1136.000	145.000
1137.000	155.000
1138.000	137.000
1139.000	149.000
1140.000	149.000
1141.000	139.000
1142.000	147.000
1143.000	161.000
1144.000	130.000
1145.000	170.000
1146.000	138.000
1147.000	147.000
1148.000	157.000
1149.000	150.000
1150.000	137.000
1151.000	149.000
1152.000	153.000
1153.000	148.000
1154.000	178.000
1155.000	176.000
1156.000	144.000
1157.000	167.000
