Date:	23-Sep-20		Time:	11:32 PM		Version no:	0.00		Project name:	55		Sample name:	222		Section name:	section		Position	0.000000	mm	E0	0.000000	keV	E1	1.000000	keV/channel	sample surface	2.000000	cm	Tube anode:	Mo		Tube voltage:	30	kV	Tube current:	30	mA	gain	15		std. database			resultfile	result		matrix element	11		sample thickness	1.000000		air passage	0.560000	cm	comments	not in position		peaking_time	0.300000	m-sec	trigger_threshold	40.000000	V	mca_bin_width	2.000000	no:	number_mca_channels	2048.000000	no:	gap_time	2048.000000	m-sec	trigger_peaking_time	2048.000000	m-sec	GAINDAC	400		HIGHGAIN	400		TAURC	400		RCTAU	400		RCTAUFRAC	400		livetime	13.334824	seconds	runtime	15.000351	seconds	input_count_rate	47769.585089	cps	output_count_rate	42465.604889	cps	triggers	704307	seconds	events_in_run	618783	seconds	channel	content		1.000	0.000
2.000	0.000
3.000	0.000
4.000	0.000
5.000	0.000
6.000	0.000
7.000	0.000
8.000	0.000
9.000	0.000
10.000	0.000
11.000	0.000
12.000	0.000
13.000	0.000
14.000	0.000
15.000	0.000
16.000	0.000
17.000	0.000
18.000	0.000
19.000	0.000
20.000	0.000
21.000	0.000
22.000	0.000
23.000	0.000
24.000	0.000
25.000	0.000
26.000	0.000
27.000	0.000
28.000	0.000
29.000	0.000
30.000	0.000
31.000	527.000
32.000	547.000
33.000	577.000
34.000	552.000
35.000	528.000
36.000	525.000
37.000	526.000
38.000	506.000
39.000	504.000
40.000	560.000
41.000	481.000
42.000	520.000
43.000	517.000
44.000	555.000
45.000	606.000
46.000	609.000
47.000	681.000
48.000	871.000
49.000	1027.000
50.000	1513.000
51.000	2200.000
52.000	2957.000
53.000	3883.000
54.000	5392.000
55.000	6868.000
56.000	9434.000
57.000	12975.000
58.000	18701.000
59.000	26122.000
60.000	33036.000
61.000	38283.000
62.000	41879.000
63.000	43202.000
64.000	43574.000
65.000	42502.000
66.000	40670.000
67.000	39208.000
68.000	38145.000
69.000	36885.000
70.000	36471.000
71.000	36324.000
72.000	36193.000
73.000	35767.000
74.000	35748.000
75.000	35561.000
76.000	35121.000
77.000	34964.000
78.000	34465.000
79.000	34924.000
80.000	34659.000
81.000	34610.000
82.000	35590.000
83.000	35848.000
84.000	36212.000
85.000	36382.000
86.000	36634.000
87.000	35859.000
88.000	35488.000
89.000	34496.000
90.000	33609.000
91.000	32453.000
92.000	32030.000
93.000	31432.000
94.000	31311.000
95.000	30896.000
96.000	30609.000
97.000	30295.000
98.000	29880.000
99.000	29861.000
100.000	29507.000
101.000	29284.000
102.000	29137.000
103.000	28936.000
104.000	28654.000
105.000	28399.000
106.000	28001.000
107.000	27778.000
108.000	27603.000
109.000	27301.000
110.000	26607.000
111.000	26818.000
112.000	26411.000
113.000	26131.000
114.000	26217.000
115.000	26023.000
116.000	26098.000
117.000	25997.000
118.000	26138.000
119.000	26038.000
120.000	25975.000
121.000	25365.000
122.000	25042.000
123.000	24605.000
124.000	24432.000
125.000	23511.000
126.000	23537.000
127.000	23041.000
128.000	22728.000
129.000	22622.000
130.000	22489.000
131.000	22017.000
132.000	22080.000
133.000	22100.000
134.000	21956.000
135.000	21684.000
136.000	21946.000
137.000	22313.000
138.000	23121.000
139.000	24013.000
140.000	26019.000
141.000	28107.000
142.000	30406.000
143.000	33179.000
144.000	35666.000
145.000	36976.000
146.000	36945.000
147.000	36222.000
148.000	34686.000
149.000	32612.000
150.000	30689.000
151.000	28712.000
152.000	27667.000
153.000	26751.000
154.000	25831.000
155.000	24616.000
156.000	23891.000
157.000	22879.000
158.000	21778.000
159.000	20720.000
160.000	20350.000
161.000	20557.000
162.000	21948.000
163.000	25190.000
164.000	29562.000
165.000	36520.000
166.000	45456.000
167.000	56131.000
168.000	66888.000
169.000	75631.000
170.000	81412.000
171.000	82789.000
172.000	79930.000
173.000	72775.000
174.000	63798.000
175.000	55480.000
176.000	47544.000
177.000	43185.000
178.000	41085.000
179.000	41721.000
180.000	44242.000
181.000	50047.000
182.000	58628.000
183.000	73181.000
184.000	94818.000
185.000	124783.000
186.000	165221.000
187.000	210075.000
188.000	259743.000
189.000	302113.000
190.000	330302.000
191.000	340814.000
192.000	328686.000
193.000	296846.000
194.000	252108.000
195.000	202614.000
196.000	153328.000
197.000	111029.000
198.000	78956.000
199.000	55698.000
200.000	40990.000
201.000	31463.000
202.000	26612.000
203.000	23946.000
204.000	22943.000
205.000	21978.000
206.000	22265.000
207.000	22229.000
208.000	22664.000
209.000	23187.000
210.000	23322.000
211.000	23946.000
212.000	24633.000
213.000	26121.000
214.000	27673.000
215.000	30385.000
216.000	33787.000
217.000	38620.000
218.000	44406.000
219.000	50564.000
220.000	56972.000
221.000	61826.000
222.000	65168.000
223.000	66892.000
224.000	65205.000
225.000	61727.000
226.000	56210.000
227.000	49569.000
228.000	43390.000
229.000	37219.000
230.000	31866.000
231.000	27575.000
232.000	24820.000
233.000	22143.000
234.000	20877.000
235.000	19645.000
236.000	19209.000
237.000	19306.000
238.000	18831.000
239.000	19126.000
240.000	19169.000
241.000	19101.000
242.000	19568.000
243.000	20308.000
244.000	21050.000
245.000	22860.000
246.000	25947.000
247.000	31053.000
248.000	39271.000
249.000	51459.000
250.000	69102.000
251.000	92132.000
252.000	119861.000
253.000	149657.000
254.000	180614.000
255.000	206168.000
256.000	225039.000
257.000	231607.000
258.000	225914.000
259.000	208090.000
260.000	182713.000
261.000	153433.000
262.000	121983.000
263.000	94445.000
264.000	71265.000
265.000	53576.000
266.000	42152.000
267.000	35293.000
268.000	32118.000
269.000	31609.000
270.000	33077.000
271.000	34997.000
272.000	38126.000
273.000	40881.000
274.000	43063.000
275.000	44769.000
276.000	45255.000
277.000	45325.000
278.000	43942.000
279.000	43675.000
280.000	43239.000
281.000	44517.000
282.000	48266.000
283.000	54576.000
284.000	63384.000
285.000	75444.000
286.000	88052.000
287.000	101005.000
288.000	110961.000
289.000	116625.000
290.000	118713.000
291.000	115728.000
292.000	108021.000
293.000	95972.000
294.000	83807.000
295.000	70779.000
296.000	58876.000
297.000	49232.000
298.000	41734.000
299.000	36325.000
300.000	33195.000
301.000	31276.000
302.000	31105.000
303.000	31187.000
304.000	32366.000
305.000	33546.000
306.000	35272.000
307.000	37992.000
308.000	40102.000
309.000	43393.000
310.000	46251.000
311.000	50353.000
312.000	55384.000
313.000	62477.000
314.000	72895.000
315.000	87970.000
316.000	109326.000
317.000	140100.000
318.000	178287.000
319.000	224608.000
320.000	276865.000
321.000	329438.000
322.000	378734.000
323.000	414597.000
324.000	435027.000
325.000	435145.000
326.000	416498.000
327.000	378537.000
328.000	329105.000
329.000	275616.000
330.000	221030.000
331.000	171330.000
332.000	129806.000
333.000	97866.000
334.000	74957.000
335.000	60321.000
336.000	52764.000
337.000	49930.000
338.000	50684.000
339.000	55003.000
340.000	62246.000
341.000	73650.000
342.000	89093.000
343.000	112423.000
344.000	146547.000
345.000	201635.000
346.000	287870.000
347.000	426880.000
348.000	658492.000
349.000	1036036.000
350.000	1621254.000
351.000	2519376.000
352.000	3827965.000
353.000	5630537.000
354.000	7995644.000
355.000	10914704.000
356.000	14290671.000
357.000	17886085.000
358.000	21404539.000
359.000	24451006.000
360.000	26699492.000
361.000	27766603.000
362.000	27584154.000
363.000	26147391.000
364.000	23667998.000
365.000	20386988.000
366.000	16791062.000
367.000	13207446.000
368.000	9918680.000
369.000	7107811.000
370.000	4883687.000
371.000	3223821.000
372.000	2047581.000
373.000	1264760.000
374.000	772403.000
375.000	485135.000
376.000	325883.000
377.000	249461.000
378.000	229493.000
379.000	246333.000
380.000	296992.000
381.000	382809.000
382.000	511736.000
383.000	695585.000
384.000	939530.000
385.000	1260752.000
386.000	1652619.000
387.000	2106454.000
388.000	2596872.000
389.000	3088483.000
390.000	3539403.000
391.000	3897293.000
392.000	4111164.000
393.000	4157584.000
394.000	4037318.000
395.000	3750118.000
396.000	3336398.000
397.000	2844922.000
398.000	2325153.000
399.000	1821023.000
400.000	1364538.000
401.000	984983.000
402.000	681516.000
403.000	456024.000
404.000	294310.000
405.000	185440.000
406.000	113799.000
407.000	70908.000
408.000	44244.000
409.000	29603.000
410.000	21074.000
411.000	16520.000
412.000	14344.000
413.000	13047.000
414.000	12388.000
415.000	12102.000
416.000	11954.000
417.000	11852.000
418.000	11854.000
419.000	11928.000
420.000	12061.000
421.000	12322.000
422.000	12753.000
423.000	13061.000
424.000	14285.000
425.000	15590.000
426.000	17618.000
427.000	21220.000
428.000	26215.000
429.000	34275.000
430.000	45632.000
431.000	60775.000
432.000	81863.000
433.000	108870.000
434.000	140568.000
435.000	177729.000
436.000	215982.000
437.000	255057.000
438.000	291502.000
439.000	319736.000
440.000	340082.000
441.000	347492.000
442.000	339813.000
443.000	321728.000
444.000	294565.000
445.000	259454.000
446.000	221242.000
447.000	184526.000
448.000	150901.000
449.000	122188.000
450.000	99492.000
451.000	82913.000
452.000	70783.000
453.000	62878.000
454.000	57675.000
455.000	53543.000
456.000	50166.000
457.000	47280.000
458.000	43951.000
459.000	40510.000
460.000	37071.000
461.000	33465.000
462.000	30593.000
463.000	28155.000
464.000	26423.000
465.000	25495.000
466.000	25114.000
467.000	25625.000
468.000	26522.000
469.000	27899.000
470.000	30051.000
471.000	32928.000
472.000	35943.000
473.000	39261.000
474.000	43412.000
475.000	48477.000
476.000	54632.000
477.000	60227.000
478.000	65974.000
479.000	72204.000
480.000	77324.000
481.000	80747.000
482.000	82955.000
483.000	82455.000
484.000	79935.000
485.000	76662.000
486.000	70794.000
487.000	64249.000
488.000	57078.000
489.000	50584.000
490.000	44017.000
491.000	38365.000
492.000	34306.000
493.000	30432.000
494.000	28427.000
495.000	26364.000
496.000	25215.000
497.000	24598.000
498.000	24713.000
499.000	24747.000
500.000	24728.000
501.000	25580.000
502.000	26424.000
503.000	26972.000
504.000	27245.000
505.000	28104.000
506.000	29128.000
507.000	29861.000
508.000	30264.000
509.000	31287.000
510.000	32191.000
511.000	32654.000
512.000	34049.000
513.000	34465.000
514.000	35630.000
515.000	37096.000
516.000	38381.000
517.000	39847.000
518.000	41426.000
519.000	43471.000
520.000	46056.000
521.000	48808.000
522.000	52578.000
523.000	56795.000
524.000	60616.000
525.000	64150.000
526.000	67266.000
527.000	70073.000
528.000	71838.000
529.000	72500.000
530.000	71456.000
531.000	69240.000
532.000	66011.000
533.000	62160.000
534.000	57667.000
535.000	53077.000
536.000	48830.000
537.000	45540.000
538.000	41572.000
539.000	38634.000
540.000	36993.000
541.000	35503.000
542.000	34645.000
543.000	34070.000
544.000	33796.000
545.000	33762.000
546.000	34022.000
547.000	34550.000
548.000	35002.000
549.000	35387.000
550.000	35895.000
551.000	36722.000
552.000	37533.000
553.000	38372.000
554.000	39274.000
555.000	40427.000
556.000	41275.000
557.000	42637.000
558.000	43576.000
559.000	45976.000
560.000	48186.000
561.000	50803.000
562.000	54287.000
563.000	59132.000
564.000	66030.000
565.000	74525.000
566.000	85472.000
567.000	99037.000
568.000	114431.000
569.000	132991.000
570.000	153745.000
571.000	173699.000
572.000	194020.000
573.000	212702.000
574.000	227452.000
575.000	236559.000
576.000	241641.000
577.000	239337.000
578.000	231094.000
579.000	218108.000
580.000	200630.000
581.000	180516.000
582.000	158820.000
583.000	137507.000
584.000	118361.000
585.000	101501.000
586.000	86451.000
587.000	74326.000
588.000	65105.000
589.000	58732.000
590.000	53644.000
591.000	50663.000
592.000	48879.000
593.000	47601.000
594.000	47551.000
595.000	48155.000
596.000	48245.000
597.000	49673.000
598.000	50546.000
599.000	52633.000
600.000	54785.000
601.000	57422.000
602.000	61353.000
603.000	66420.000
604.000	74115.000
605.000	85459.000
606.000	103344.000
607.000	129677.000
608.000	170036.000
609.000	231790.000
610.000	322419.000
611.000	455182.000
612.000	642215.000
613.000	895119.000
614.000	1233007.000
615.000	1670480.000
616.000	2200961.000
617.000	2836533.000
618.000	3559441.000
619.000	4347016.000
620.000	5149099.000
621.000	5927605.000
622.000	6643093.000
623.000	7226796.000
624.000	7616714.000
625.000	7806653.000
626.000	7760898.000
627.000	7479865.000
628.000	7002842.000
629.000	6371929.000
630.000	5628006.000
631.000	4824338.000
632.000	4023358.000
633.000	3258275.000
634.000	2570065.000
635.000	1974804.000
636.000	1485246.000
637.000	1092328.000
638.000	790332.000
639.000	565162.000
640.000	404076.000
641.000	291460.000
642.000	216406.000
643.000	166299.000
644.000	133573.000
645.000	113748.000
646.000	100762.000
647.000	93541.000
648.000	89108.000
649.000	85765.000
650.000	84868.000
651.000	84042.000
652.000	83585.000
653.000	83610.000
654.000	83867.000
655.000	84537.000
656.000	85256.000
657.000	86101.000
658.000	86870.000
659.000	88460.000
660.000	89591.000
661.000	91937.000
662.000	93348.000
663.000	94806.000
664.000	97529.000
665.000	100441.000
666.000	103344.000
667.000	107551.000
668.000	112577.000
669.000	118974.000
670.000	125145.000
671.000	135930.000
672.000	147215.000
673.000	164306.000
674.000	184465.000
675.000	213332.000
676.000	250099.000
677.000	298320.000
678.000	356757.000
679.000	430620.000
680.000	519923.000
681.000	618487.000
682.000	729063.000
683.000	845516.000
684.000	959067.000
685.000	1071523.000
686.000	1168246.000
687.000	1245471.000
688.000	1295009.000
689.000	1313975.000
690.000	1303580.000
691.000	1258887.000
692.000	1186653.000
693.000	1092422.000
694.000	979248.000
695.000	859084.000
696.000	738627.000
697.000	620252.000
698.000	513712.000
699.000	420299.000
700.000	338525.000
701.000	271440.000
702.000	219808.000
703.000	179322.000
704.000	149022.000
705.000	127409.000
706.000	112233.000
707.000	102339.000
708.000	95869.000
709.000	91881.000
710.000	90517.000
711.000	90624.000
712.000	92072.000
713.000	94251.000
714.000	96461.000
715.000	99943.000
716.000	104292.000
717.000	107971.000
718.000	112804.000
719.000	117273.000
720.000	121117.000
721.000	125369.000
722.000	130265.000
723.000	132691.000
724.000	136086.000
725.000	139314.000
726.000	140267.000
727.000	141274.000
728.000	141494.000
729.000	140331.000
730.000	138756.000
731.000	137058.000
732.000	133634.000
733.000	130665.000
734.000	126962.000
735.000	123164.000
736.000	118289.000
737.000	115229.000
738.000	111943.000
739.000	108773.000
740.000	105742.000
741.000	103925.000
742.000	102729.000
743.000	101928.000
744.000	101695.000
745.000	101083.000
746.000	101112.000
747.000	101894.000
748.000	101840.000
749.000	102519.000
750.000	103315.000
751.000	103094.000
752.000	103611.000
753.000	103547.000
754.000	103735.000
755.000	104351.000
756.000	104352.000
757.000	104438.000
758.000	105374.000
759.000	104635.000
760.000	104902.000
761.000	106277.000
762.000	106762.000
763.000	106896.000
764.000	108138.000
765.000	108427.000
766.000	110052.000
767.000	110943.000
768.000	112834.000
769.000	114321.000
770.000	116445.000
771.000	118816.000
772.000	120868.000
773.000	124604.000
774.000	128206.000
775.000	132115.000
776.000	136165.000
777.000	141658.000
778.000	146096.000
779.000	152969.000
780.000	158716.000
781.000	165010.000
782.000	170155.000
783.000	176734.000
784.000	182579.000
785.000	186862.000
786.000	191822.000
787.000	195080.000
788.000	199022.000
789.000	201743.000
790.000	203711.000
791.000	205115.000
792.000	206824.000
793.000	208546.000
794.000	209234.000
795.000	208691.000
796.000	210598.000
797.000	211269.000
798.000	212421.000
799.000	211824.000
800.000	214909.000
801.000	216142.000
802.000	217045.000
803.000	220848.000
804.000	225505.000
805.000	229984.000
806.000	238298.000
807.000	248352.000
808.000	259541.000
809.000	273873.000
810.000	291278.000
811.000	310330.000
812.000	331826.000
813.000	357928.000
814.000	378889.000
815.000	398222.000
816.000	417719.000
817.000	432099.000
818.000	443005.000
819.000	448089.000
820.000	449005.000
821.000	440009.000
822.000	428277.000
823.000	410626.000
824.000	388799.000
825.000	365128.000
826.000	338596.000
827.000	313424.000
828.000	288236.000
829.000	265539.000
830.000	245410.000
831.000	228992.000
832.000	215425.000
833.000	204414.000
834.000	196780.000
835.000	192725.000
836.000	187990.000
837.000	186838.000
838.000	187453.000
839.000	187127.000
840.000	187906.000
841.000	188394.000
842.000	189897.000
843.000	189801.000
844.000	189269.000
845.000	189310.000
846.000	187298.000
847.000	186446.000
848.000	184837.000
849.000	182991.000
850.000	180414.000
851.000	178458.000
852.000	175556.000
853.000	175658.000
854.000	173556.000
855.000	172429.000
856.000	171279.000
857.000	169631.000
858.000	169139.000
859.000	169006.000
860.000	169133.000
861.000	168654.000
862.000	169803.000
863.000	169662.000
864.000	168967.000
865.000	169266.000
866.000	170015.000
867.000	170762.000
868.000	170881.000
869.000	170334.000
870.000	169401.000
871.000	170453.000
872.000	170096.000
873.000	169775.000
874.000	169117.000
875.000	168645.000
876.000	168785.000
877.000	168946.000
878.000	168420.000
879.000	169368.000
880.000	168621.000
881.000	168855.000
882.000	169658.000
883.000	170092.000
884.000	170474.000
885.000	171782.000
886.000	173342.000
887.000	173584.000
888.000	174479.000
889.000	176738.000
890.000	179801.000
891.000	181091.000
892.000	183714.000
893.000	185655.000
894.000	189221.000
895.000	191398.000
896.000	195135.000
897.000	198194.000
898.000	201108.000
899.000	205766.000
900.000	209399.000
901.000	212120.000
902.000	215508.000
903.000	218753.000
904.000	221975.000
905.000	226583.000
906.000	228025.000
907.000	230511.000
908.000	233422.000
909.000	236805.000
910.000	238920.000
911.000	241570.000
912.000	242072.000
913.000	244255.000
914.000	246688.000
915.000	248603.000
916.000	250233.000
917.000	251697.000
918.000	253558.000
919.000	255076.000
920.000	257734.000
921.000	259035.000
922.000	261216.000
923.000	263701.000
924.000	265699.000
925.000	268079.000
926.000	272814.000
927.000	274399.000
928.000	278264.000
929.000	282618.000
930.000	287675.000
931.000	293043.000
932.000	298879.000
933.000	305685.000
934.000	313770.000
935.000	323756.000
936.000	331869.000
937.000	341176.000
938.000	349967.000
939.000	360362.000
940.000	368267.000
941.000	373475.000
942.000	378627.000
943.000	381116.000
944.000	381275.000
945.000	377951.000
946.000	374237.000
947.000	367266.000
948.000	357120.000
949.000	346926.000
950.000	333687.000
951.000	323210.000
952.000	311844.000
953.000	301605.000
954.000	290858.000
955.000	280926.000
956.000	274308.000
957.000	268439.000
958.000	263936.000
959.000	260735.000
960.000	257005.000
961.000	255990.000
962.000	257487.000
963.000	256920.000
964.000	258670.000
965.000	259624.000
966.000	263057.000
967.000	264528.000
968.000	266008.000
969.000	268831.000
970.000	269181.000
971.000	270076.000
972.000	270514.000
973.000	268621.000
974.000	267429.000
975.000	263991.000
976.000	261292.000
977.000	255712.000
978.000	251945.000
979.000	247229.000
980.000	241656.000
981.000	237806.000
982.000	233638.000
983.000	229493.000
984.000	225926.000
985.000	222603.000
986.000	218590.000
987.000	216219.000
988.000	213272.000
989.000	211067.000
