Date:	24-Sep-20		Time:	12:11 AM		Version no:	0.00		Project name:	55		Sample name:	222		Section name:	section		Position	170.750018	mm	E0	0.000000	keV	E1	1.000000	keV/channel	sample surface	7.937282	cm	Tube anode:	Mo		Tube voltage:	30	kV	Tube current:	30	mA	gain	15		std. database			resultfile	result		matrix element	11		sample thickness	1.000000		air passage	0.560000	cm	comments	in position		peaking_time	0.300000	m-sec	trigger_threshold	40.000000	V	mca_bin_width	2.000000	no:	number_mca_channels	2048.000000	no:	gap_time	2048.000000	m-sec	trigger_peaking_time	2048.000000	m-sec	GAINDAC	400		HIGHGAIN	400		TAURC	400		RCTAU	400		RCTAUFRAC	400		livetime	13.509216	seconds	runtime	15.000130	seconds	input_count_rate	45716.199922	cps	output_count_rate	41172.309840	cps	triggers	675399	seconds	events_in_run	603329	seconds	channel	content		1.000	0.000
2.000	0.000
3.000	0.000
4.000	0.000
5.000	0.000
6.000	0.000
7.000	0.000
8.000	0.000
9.000	0.000
10.000	0.000
11.000	0.000
12.000	0.000
13.000	0.000
14.000	0.000
15.000	0.000
16.000	0.000
17.000	0.000
18.000	0.000
19.000	0.000
20.000	0.000
21.000	0.000
22.000	0.000
23.000	0.000
24.000	0.000
25.000	0.000
26.000	0.000
27.000	0.000
28.000	0.000
29.000	0.000
30.000	0.000
31.000	0.000
32.000	1.000
33.000	0.000
34.000	0.000
35.000	0.000
36.000	0.000
37.000	0.000
38.000	0.000
39.000	1.000
40.000	0.000
41.000	0.000
42.000	0.000
43.000	1.000
44.000	0.000
45.000	0.000
46.000	1.000
47.000	0.000
48.000	1.000
49.000	1.000
50.000	0.000
51.000	1.000
52.000	2.000
53.000	1.000
54.000	5.000
55.000	2.000
56.000	7.000
57.000	11.000
58.000	10.000
59.000	10.000
60.000	20.000
61.000	25.000
62.000	36.000
63.000	20.000
64.000	31.000
65.000	34.000
66.000	28.000
67.000	23.000
68.000	33.000
69.000	42.000
70.000	28.000
71.000	24.000
72.000	29.000
73.000	33.000
74.000	21.000
75.000	30.000
76.000	19.000
77.000	29.000
78.000	27.000
79.000	25.000
80.000	34.000
81.000	20.000
82.000	25.000
83.000	20.000
84.000	29.000
85.000	19.000
86.000	20.000
87.000	22.000
88.000	17.000
89.000	27.000
90.000	22.000
91.000	20.000
92.000	32.000
93.000	16.000
94.000	17.000
95.000	23.000
96.000	22.000
97.000	20.000
98.000	15.000
99.000	23.000
100.000	24.000
101.000	18.000
102.000	21.000
103.000	14.000
104.000	16.000
105.000	21.000
106.000	25.000
107.000	18.000
108.000	14.000
109.000	12.000
110.000	16.000
111.000	20.000
112.000	15.000
113.000	12.000
114.000	16.000
115.000	18.000
116.000	21.000
117.000	19.000
118.000	15.000
119.000	19.000
120.000	20.000
121.000	15.000
122.000	14.000
123.000	15.000
124.000	18.000
125.000	11.000
126.000	13.000
127.000	16.000
128.000	13.000
129.000	15.000
130.000	15.000
131.000	12.000
132.000	21.000
133.000	18.000
134.000	14.000
135.000	20.000
136.000	21.000
137.000	11.000
138.000	18.000
139.000	21.000
140.000	16.000
141.000	20.000
142.000	17.000
143.000	24.000
144.000	28.000
145.000	25.000
146.000	20.000
147.000	23.000
148.000	30.000
149.000	26.000
150.000	19.000
151.000	28.000
152.000	22.000
153.000	15.000
154.000	15.000
155.000	17.000
156.000	15.000
157.000	15.000
158.000	15.000
159.000	17.000
160.000	12.000
161.000	22.000
162.000	11.000
163.000	11.000
164.000	22.000
165.000	19.000
166.000	32.000
167.000	33.000
168.000	50.000
169.000	63.000
170.000	61.000
171.000	50.000
172.000	44.000
173.000	60.000
174.000	42.000
175.000	37.000
176.000	27.000
177.000	43.000
178.000	32.000
179.000	28.000
180.000	25.000
181.000	42.000
182.000	46.000
183.000	50.000
184.000	57.000
185.000	98.000
186.000	129.000
187.000	125.000
188.000	179.000
189.000	191.000
190.000	243.000
191.000	240.000
192.000	223.000
193.000	222.000
194.000	168.000
195.000	121.000
196.000	98.000
197.000	79.000
198.000	54.000
199.000	39.000
200.000	28.000
201.000	18.000
202.000	24.000
203.000	12.000
204.000	21.000
205.000	12.000
206.000	13.000
207.000	24.000
208.000	18.000
209.000	12.000
210.000	13.000
211.000	17.000
212.000	17.000
213.000	7.000
214.000	22.000
215.000	23.000
216.000	29.000
217.000	43.000
218.000	29.000
219.000	39.000
220.000	21.000
221.000	53.000
222.000	36.000
223.000	43.000
224.000	48.000
225.000	37.000
226.000	39.000
227.000	33.000
228.000	29.000
229.000	14.000
230.000	17.000
231.000	18.000
232.000	16.000
233.000	13.000
234.000	15.000
235.000	15.000
236.000	9.000
237.000	12.000
238.000	19.000
239.000	10.000
240.000	7.000
241.000	13.000
242.000	11.000
243.000	10.000
244.000	17.000
245.000	19.000
246.000	21.000
247.000	16.000
248.000	25.000
249.000	40.000
250.000	36.000
251.000	72.000
252.000	78.000
253.000	103.000
254.000	143.000
255.000	124.000
256.000	143.000
257.000	155.000
258.000	146.000
259.000	161.000
260.000	114.000
261.000	98.000
262.000	81.000
263.000	75.000
264.000	50.000
265.000	41.000
266.000	35.000
267.000	21.000
268.000	22.000
269.000	18.000
270.000	29.000
271.000	18.000
272.000	45.000
273.000	26.000
274.000	28.000
275.000	24.000
276.000	32.000
277.000	27.000
278.000	30.000
279.000	31.000
280.000	20.000
281.000	34.000
282.000	28.000
283.000	41.000
284.000	45.000
285.000	57.000
286.000	59.000
287.000	70.000
288.000	83.000
289.000	93.000
290.000	81.000
291.000	91.000
292.000	71.000
293.000	65.000
294.000	76.000
295.000	58.000
296.000	30.000
297.000	28.000
298.000	20.000
299.000	34.000
300.000	17.000
301.000	15.000
302.000	20.000
303.000	22.000
304.000	24.000
305.000	28.000
306.000	20.000
307.000	32.000
308.000	34.000
309.000	29.000
310.000	35.000
311.000	45.000
312.000	34.000
313.000	35.000
314.000	44.000
315.000	67.000
316.000	84.000
317.000	113.000
318.000	114.000
319.000	160.000
320.000	185.000
321.000	223.000
322.000	265.000
323.000	239.000
324.000	273.000
325.000	296.000
326.000	266.000
327.000	257.000
328.000	220.000
329.000	169.000
330.000	162.000
331.000	98.000
332.000	78.000
333.000	70.000
334.000	55.000
335.000	44.000
336.000	35.000
337.000	47.000
338.000	43.000
339.000	34.000
340.000	46.000
341.000	46.000
342.000	47.000
343.000	62.000
344.000	89.000
345.000	122.000
346.000	183.000
347.000	287.000
348.000	481.000
349.000	685.000
350.000	1172.000
351.000	1653.000
352.000	2614.000
353.000	3945.000
354.000	5373.000
355.000	7508.000
356.000	9696.000
357.000	12324.000
358.000	14314.000
359.000	16853.000
360.000	18362.000
361.000	19063.000
362.000	18853.000
363.000	17806.000
364.000	16205.000
365.000	13991.000
366.000	11524.000
367.000	9285.000
368.000	6742.000
369.000	4884.000
370.000	3332.000
371.000	2210.000
372.000	1363.000
373.000	891.000
374.000	562.000
375.000	310.000
376.000	207.000
377.000	157.000
378.000	160.000
379.000	161.000
380.000	201.000
381.000	250.000
382.000	345.000
383.000	483.000
384.000	676.000
385.000	840.000
386.000	1116.000
387.000	1539.000
388.000	1868.000
389.000	2065.000
390.000	2395.000
391.000	2645.000
392.000	2969.000
393.000	2967.000
394.000	2871.000
395.000	2611.000
396.000	2218.000
397.000	1963.000
398.000	1538.000
399.000	1156.000
400.000	967.000
401.000	683.000
402.000	511.000
403.000	334.000
404.000	208.000
405.000	123.000
406.000	72.000
407.000	43.000
408.000	34.000
409.000	15.000
410.000	9.000
411.000	12.000
412.000	8.000
413.000	4.000
414.000	6.000
415.000	6.000
416.000	6.000
417.000	4.000
418.000	3.000
419.000	10.000
420.000	10.000
421.000	7.000
422.000	4.000
423.000	4.000
424.000	8.000
425.000	9.000
426.000	7.000
427.000	22.000
428.000	18.000
429.000	23.000
430.000	25.000
431.000	31.000
432.000	49.000
433.000	43.000
434.000	73.000
435.000	114.000
436.000	123.000
437.000	126.000
438.000	172.000
439.000	162.000
440.000	192.000
441.000	184.000
442.000	178.000
443.000	190.000
444.000	173.000
445.000	143.000
446.000	146.000
447.000	96.000
448.000	94.000
449.000	79.000
450.000	67.000
451.000	49.000
452.000	41.000
453.000	32.000
454.000	39.000
455.000	40.000
456.000	24.000
457.000	31.000
458.000	28.000
459.000	31.000
460.000	20.000
461.000	30.000
462.000	12.000
463.000	17.000
464.000	11.000
465.000	20.000
466.000	12.000
467.000	25.000
468.000	18.000
469.000	16.000
470.000	31.000
471.000	26.000
472.000	18.000
473.000	22.000
474.000	26.000
475.000	27.000
476.000	29.000
477.000	33.000
478.000	41.000
479.000	38.000
480.000	44.000
481.000	48.000
482.000	51.000
483.000	44.000
484.000	52.000
485.000	46.000
486.000	52.000
487.000	29.000
488.000	31.000
489.000	34.000
490.000	31.000
491.000	19.000
492.000	23.000
493.000	24.000
494.000	20.000
495.000	20.000
496.000	15.000
497.000	18.000
498.000	15.000
499.000	19.000
500.000	15.000
501.000	13.000
502.000	19.000
503.000	24.000
504.000	18.000
505.000	17.000
506.000	14.000
507.000	20.000
508.000	22.000
509.000	23.000
510.000	28.000
511.000	30.000
512.000	11.000
513.000	21.000
514.000	22.000
515.000	21.000
516.000	22.000
517.000	14.000
518.000	32.000
519.000	17.000
520.000	27.000
521.000	38.000
522.000	34.000
523.000	33.000
524.000	28.000
525.000	36.000
526.000	36.000
527.000	39.000
528.000	45.000
529.000	49.000
530.000	43.000
531.000	59.000
532.000	43.000
533.000	35.000
534.000	42.000
535.000	33.000
536.000	33.000
537.000	31.000
538.000	21.000
539.000	25.000
540.000	21.000
541.000	20.000
542.000	27.000
543.000	18.000
544.000	20.000
545.000	16.000
546.000	16.000
547.000	21.000
548.000	22.000
549.000	19.000
550.000	19.000
551.000	22.000
552.000	24.000
553.000	22.000
554.000	35.000
555.000	15.000
556.000	21.000
557.000	38.000
558.000	28.000
559.000	29.000
560.000	24.000
561.000	33.000
562.000	43.000
563.000	30.000
564.000	46.000
565.000	50.000
566.000	52.000
567.000	44.000
568.000	53.000
569.000	54.000
570.000	67.000
571.000	68.000
572.000	85.000
573.000	85.000
574.000	93.000
575.000	85.000
576.000	86.000
577.000	81.000
578.000	77.000
579.000	91.000
580.000	91.000
581.000	54.000
582.000	49.000
583.000	51.000
584.000	47.000
585.000	41.000
586.000	38.000
587.000	35.000
588.000	40.000
589.000	31.000
590.000	27.000
591.000	32.000
592.000	29.000
593.000	41.000
594.000	38.000
595.000	26.000
596.000	30.000
597.000	27.000
598.000	36.000
599.000	25.000
600.000	42.000
601.000	37.000
602.000	51.000
603.000	51.000
604.000	52.000
605.000	49.000
606.000	57.000
607.000	83.000
608.000	105.000
609.000	123.000
610.000	209.000
611.000	273.000
612.000	357.000
613.000	519.000
614.000	704.000
615.000	987.000
616.000	1310.000
617.000	1550.000
618.000	2103.000
619.000	2549.000
620.000	2945.000
621.000	3434.000
622.000	3860.000
623.000	4091.000
624.000	4393.000
625.000	4429.000
626.000	4466.000
627.000	4359.000
628.000	4065.000
629.000	3634.000
630.000	3325.000
631.000	2757.000
632.000	2356.000
633.000	1900.000
634.000	1514.000
635.000	1143.000
636.000	817.000
637.000	618.000
638.000	435.000
639.000	311.000
640.000	231.000
641.000	171.000
642.000	131.000
643.000	112.000
644.000	89.000
645.000	73.000
646.000	69.000
647.000	60.000
648.000	36.000
649.000	65.000
650.000	68.000
651.000	51.000
652.000	51.000
653.000	50.000
654.000	55.000
655.000	60.000
656.000	49.000
657.000	55.000
658.000	62.000
659.000	64.000
660.000	58.000
661.000	56.000
662.000	56.000
663.000	60.000
664.000	69.000
665.000	49.000
666.000	44.000
667.000	66.000
668.000	63.000
669.000	98.000
670.000	77.000
671.000	97.000
672.000	91.000
673.000	114.000
674.000	128.000
675.000	132.000
676.000	136.000
677.000	164.000
678.000	211.000
679.000	244.000
680.000	302.000
681.000	352.000
682.000	446.000
683.000	490.000
684.000	578.000
685.000	634.000
686.000	664.000
687.000	722.000
688.000	770.000
689.000	791.000
690.000	833.000
691.000	758.000
692.000	698.000
693.000	636.000
694.000	535.000
695.000	491.000
696.000	472.000
697.000	353.000
698.000	306.000
699.000	279.000
700.000	205.000
701.000	165.000
702.000	136.000
703.000	93.000
704.000	117.000
705.000	76.000
706.000	76.000
707.000	63.000
708.000	55.000
709.000	67.000
710.000	43.000
711.000	65.000
712.000	54.000
713.000	70.000
714.000	50.000
715.000	70.000
716.000	67.000
717.000	67.000
718.000	61.000
719.000	65.000
720.000	90.000
721.000	82.000
722.000	82.000
723.000	89.000
724.000	94.000
725.000	71.000
726.000	83.000
727.000	83.000
728.000	87.000
729.000	89.000
730.000	100.000
731.000	86.000
732.000	82.000
733.000	100.000
734.000	75.000
735.000	66.000
736.000	83.000
737.000	66.000
738.000	80.000
739.000	89.000
740.000	80.000
741.000	64.000
742.000	73.000
743.000	69.000
744.000	75.000
745.000	53.000
746.000	71.000
747.000	71.000
748.000	62.000
749.000	80.000
750.000	75.000
751.000	63.000
752.000	72.000
753.000	52.000
754.000	55.000
755.000	73.000
756.000	73.000
757.000	61.000
758.000	76.000
759.000	59.000
760.000	70.000
761.000	88.000
762.000	75.000
763.000	65.000
764.000	74.000
765.000	81.000
766.000	79.000
767.000	75.000
768.000	77.000
769.000	76.000
770.000	70.000
771.000	88.000
772.000	89.000
773.000	65.000
774.000	89.000
775.000	93.000
776.000	98.000
777.000	86.000
778.000	117.000
779.000	95.000
780.000	121.000
781.000	90.000
782.000	106.000
783.000	125.000
784.000	88.000
785.000	118.000
786.000	140.000
787.000	127.000
788.000	131.000
789.000	131.000
790.000	150.000
791.000	129.000
792.000	151.000
793.000	138.000
794.000	144.000
795.000	151.000
796.000	131.000
797.000	135.000
798.000	125.000
799.000	144.000
800.000	133.000
801.000	123.000
802.000	129.000
803.000	136.000
804.000	162.000
805.000	157.000
806.000	161.000
807.000	153.000
808.000	198.000
809.000	167.000
810.000	201.000
811.000	209.000
812.000	213.000
813.000	250.000
814.000	261.000
815.000	256.000
816.000	317.000
817.000	321.000
818.000	312.000
819.000	312.000
820.000	333.000
821.000	303.000
822.000	304.000
823.000	259.000
824.000	274.000
825.000	250.000
826.000	252.000
827.000	229.000
828.000	204.000
829.000	170.000
830.000	170.000
831.000	145.000
832.000	152.000
833.000	151.000
834.000	124.000
835.000	131.000
836.000	125.000
837.000	116.000
838.000	134.000
839.000	129.000
840.000	118.000
841.000	114.000
842.000	142.000
843.000	142.000
844.000	125.000
845.000	135.000
846.000	127.000
847.000	108.000
848.000	125.000
849.000	125.000
850.000	118.000
851.000	145.000
852.000	103.000
853.000	99.000
854.000	100.000
855.000	118.000
856.000	87.000
857.000	117.000
858.000	124.000
859.000	111.000
860.000	120.000
861.000	110.000
862.000	128.000
863.000	115.000
864.000	102.000
865.000	93.000
866.000	97.000
867.000	109.000
868.000	105.000
869.000	106.000
870.000	92.000
871.000	110.000
872.000	103.000
873.000	126.000
874.000	94.000
875.000	117.000
876.000	120.000
877.000	105.000
878.000	108.000
879.000	105.000
880.000	104.000
881.000	105.000
882.000	105.000
883.000	104.000
884.000	120.000
885.000	92.000
886.000	105.000
887.000	120.000
888.000	115.000
889.000	108.000
890.000	132.000
891.000	121.000
892.000	112.000
893.000	124.000
894.000	124.000
895.000	117.000
896.000	123.000
897.000	125.000
898.000	154.000
899.000	143.000
900.000	113.000
901.000	135.000
902.000	139.000
903.000	151.000
904.000	141.000
905.000	121.000
906.000	145.000
907.000	133.000
908.000	160.000
909.000	165.000
910.000	152.000
911.000	160.000
912.000	146.000
913.000	170.000
914.000	167.000
915.000	149.000
916.000	148.000
917.000	181.000
918.000	157.000
919.000	165.000
920.000	166.000
921.000	178.000
922.000	160.000
923.000	176.000
924.000	172.000
925.000	179.000
926.000	164.000
927.000	192.000
928.000	183.000
929.000	185.000
930.000	211.000
931.000	208.000
932.000	209.000
933.000	185.000
934.000	206.000
935.000	199.000
936.000	215.000
937.000	214.000
938.000	229.000
939.000	215.000
940.000	235.000
941.000	230.000
942.000	246.000
943.000	269.000
944.000	275.000
945.000	222.000
946.000	245.000
947.000	258.000
948.000	243.000
949.000	224.000
950.000	209.000
951.000	229.000
952.000	193.000
953.000	195.000
954.000	186.000
955.000	161.000
956.000	176.000
957.000	150.000
958.000	143.000
959.000	183.000
960.000	155.000
961.000	182.000
962.000	172.000
963.000	173.000
964.000	168.000
965.000	189.000
966.000	197.000
967.000	159.000
968.000	173.000
969.000	155.000
970.000	186.000
971.000	172.000
972.000	179.000
973.000	137.000
974.000	196.000
975.000	149.000
976.000	180.000
977.000	196.000
978.000	159.000
979.000	161.000
980.000	170.000
981.000	151.000
982.000	158.000
983.000	158.000
984.000	134.000
985.000	133.000
986.000	150.000
987.000	134.000
988.000	156.000
989.000	134.000
990.000	130.000
991.000	134.000
992.000	147.000
993.000	126.000
994.000	128.000
995.000	126.000
996.000	121.000
997.000	134.000
998.000	138.000
999.000	132.000
1000.000	149.000
1001.000	119.000
1002.000	140.000
1003.000	123.000
1004.000	135.000
1005.000	118.000
1006.000	123.000
1007.000	110.000
1008.000	126.000
1009.000	127.000
1010.000	136.000
1011.000	133.000
1012.000	135.000
1013.000	149.000
1014.000	147.000
1015.000	131.000
1016.000	139.000
1017.000	148.000
1018.000	133.000
1019.000	142.000
1020.000	136.000
1021.000	107.000
1022.000	137.000
1023.000	120.000
1024.000	141.000
1025.000	153.000
1026.000	148.000
1027.000	102.000
1028.000	130.000
1029.000	168.000
1030.000	125.000
1031.000	140.000
1032.000	145.000
1033.000	130.000
1034.000	143.000
1035.000	128.000
1036.000	151.000
1037.000	150.000
1038.000	147.000
1039.000	138.000
1040.000	130.000
1041.000	148.000
1042.000	140.000
1043.000	130.000
1044.000	140.000
1045.000	142.000
1046.000	181.000
1047.000	157.000
1048.000	165.000
1049.000	127.000
1050.000	149.000
1051.000	136.000
1052.000	130.000
1053.000	165.000
1054.000	162.000
1055.000	176.000
1056.000	156.000
1057.000	144.000
1058.000	155.000
1059.000	164.000
1060.000	147.000
1061.000	168.000
1062.000	142.000
1063.000	134.000
1064.000	166.000
1065.000	165.000
1066.000	177.000
1067.000	158.000
1068.000	157.000
1069.000	154.000
1070.000	148.000
1071.000	165.000
1072.000	156.000
1073.000	125.000
1074.000	133.000
1075.000	152.000
1076.000	151.000
1077.000	139.000
1078.000	131.000
1079.000	137.000
1080.000	142.000
1081.000	145.000
1082.000	155.000
1083.000	150.000
1084.000	155.000
1085.000	131.000
1086.000	151.000
1087.000	145.000
1088.000	142.000
1089.000	151.000
1090.000	170.000
1091.000	150.000
1092.000	148.000
1093.000	163.000
1094.000	176.000
1095.000	180.000
1096.000	160.000
1097.000	160.000
1098.000	171.000
1099.000	166.000
1100.000	169.000
1101.000	154.000
1102.000	169.000
1103.000	178.000
1104.000	166.000
1105.000	159.000
1106.000	157.000
1107.000	172.000
1108.000	139.000
1109.000	162.000
1110.000	149.000
1111.000	147.000
1112.000	147.000
1113.000	166.000
1114.000	145.000
1115.000	157.000
1116.000	142.000
1117.000	158.000
1118.000	141.000
1119.000	143.000
1120.000	156.000
1121.000	178.000
1122.000	165.000
1123.000	153.000
1124.000	171.000
1125.000	144.000
1126.000	130.000
1127.000	159.000
1128.000	171.000
1129.000	152.000
1130.000	179.000
1131.000	144.000
1132.000	141.000
1133.000	152.000
1134.000	129.000
1135.000	163.000
1136.000	139.000
1137.000	149.000
1138.000	167.000
1139.000	151.000
1140.000	171.000
1141.000	179.000
1142.000	138.000
1143.000	148.000
1144.000	151.000
1145.000	168.000
1146.000	169.000
1147.000	145.000
1148.000	145.000
1149.000	169.000
1150.000	152.000
1151.000	152.000
1152.000	171.000
1153.000	174.000
1154.000	175.000
1155.000	180.000
1156.000	180.000
1157.000	175.000
1158.000	180.000
