Date:	24-Sep-20		Time:	12:06 AM		Version no:	0.00		Project name:	55		Sample name:	222		Section name:	section		Position	150.750018	mm	E0	0.000000	keV	E1	1.000000	keV/channel	sample surface	7.994987	cm	Tube anode:	Mo		Tube voltage:	30	kV	Tube current:	30	mA	gain	15		std. database			resultfile	result		matrix element	11		sample thickness	1.000000		air passage	0.560000	cm	comments	in position		peaking_time	0.300000	m-sec	trigger_threshold	40.000000	V	mca_bin_width	2.000000	no:	number_mca_channels	2048.000000	no:	gap_time	2048.000000	m-sec	trigger_peaking_time	2048.000000	m-sec	GAINDAC	400		HIGHGAIN	400		TAURC	400		RCTAU	400		RCTAUFRAC	400		livetime	13.428922	seconds	runtime	15.000258	seconds	input_count_rate	50859.481557	cps	output_count_rate	45531.748670	cps	triggers	749939	seconds	events_in_run	667221	seconds	channel	content		1.000	0.000
2.000	0.000
3.000	0.000
4.000	0.000
5.000	0.000
6.000	0.000
7.000	0.000
8.000	0.000
9.000	0.000
10.000	0.000
11.000	0.000
12.000	0.000
13.000	0.000
14.000	0.000
15.000	0.000
16.000	0.000
17.000	0.000
18.000	0.000
19.000	0.000
20.000	0.000
21.000	0.000
22.000	0.000
23.000	0.000
24.000	0.000
25.000	0.000
26.000	0.000
27.000	0.000
28.000	0.000
29.000	0.000
30.000	0.000
31.000	0.000
32.000	0.000
33.000	0.000
34.000	1.000
35.000	0.000
36.000	3.000
37.000	0.000
38.000	0.000
39.000	0.000
40.000	0.000
41.000	0.000
42.000	1.000
43.000	0.000
44.000	0.000
45.000	1.000
46.000	0.000
47.000	0.000
48.000	1.000
49.000	1.000
50.000	0.000
51.000	3.000
52.000	1.000
53.000	2.000
54.000	3.000
55.000	8.000
56.000	5.000
57.000	12.000
58.000	11.000
59.000	20.000
60.000	19.000
61.000	32.000
62.000	31.000
63.000	33.000
64.000	33.000
65.000	22.000
66.000	25.000
67.000	33.000
68.000	32.000
69.000	26.000
70.000	32.000
71.000	23.000
72.000	36.000
73.000	32.000
74.000	23.000
75.000	14.000
76.000	19.000
77.000	17.000
78.000	23.000
79.000	26.000
80.000	30.000
81.000	27.000
82.000	30.000
83.000	21.000
84.000	23.000
85.000	27.000
86.000	30.000
87.000	30.000
88.000	16.000
89.000	27.000
90.000	28.000
91.000	29.000
92.000	13.000
93.000	27.000
94.000	20.000
95.000	21.000
96.000	15.000
97.000	25.000
98.000	21.000
99.000	29.000
100.000	21.000
101.000	13.000
102.000	19.000
103.000	27.000
104.000	24.000
105.000	18.000
106.000	21.000
107.000	12.000
108.000	21.000
109.000	13.000
110.000	17.000
111.000	17.000
112.000	18.000
113.000	23.000
114.000	26.000
115.000	21.000
116.000	19.000
117.000	20.000
118.000	23.000
119.000	29.000
120.000	17.000
121.000	17.000
122.000	25.000
123.000	13.000
124.000	17.000
125.000	20.000
126.000	15.000
127.000	19.000
128.000	15.000
129.000	22.000
130.000	15.000
131.000	16.000
132.000	23.000
133.000	19.000
134.000	20.000
135.000	17.000
136.000	17.000
137.000	19.000
138.000	10.000
139.000	19.000
140.000	17.000
141.000	22.000
142.000	18.000
143.000	31.000
144.000	25.000
145.000	25.000
146.000	35.000
147.000	20.000
148.000	17.000
149.000	18.000
150.000	27.000
151.000	18.000
152.000	15.000
153.000	18.000
154.000	17.000
155.000	11.000
156.000	19.000
157.000	15.000
158.000	14.000
159.000	20.000
160.000	20.000
161.000	16.000
162.000	15.000
163.000	23.000
164.000	25.000
165.000	25.000
166.000	33.000
167.000	57.000
168.000	43.000
169.000	63.000
170.000	70.000
171.000	57.000
172.000	56.000
173.000	59.000
174.000	38.000
175.000	38.000
176.000	35.000
177.000	37.000
178.000	21.000
179.000	31.000
180.000	28.000
181.000	34.000
182.000	31.000
183.000	49.000
184.000	62.000
185.000	79.000
186.000	109.000
187.000	122.000
188.000	150.000
189.000	178.000
190.000	203.000
191.000	187.000
192.000	183.000
193.000	165.000
194.000	152.000
195.000	131.000
196.000	108.000
197.000	84.000
198.000	42.000
199.000	38.000
200.000	34.000
201.000	23.000
202.000	19.000
203.000	15.000
204.000	10.000
205.000	8.000
206.000	11.000
207.000	20.000
208.000	16.000
209.000	17.000
210.000	14.000
211.000	18.000
212.000	18.000
213.000	22.000
214.000	15.000
215.000	14.000
216.000	28.000
217.000	34.000
218.000	22.000
219.000	29.000
220.000	34.000
221.000	44.000
222.000	44.000
223.000	37.000
224.000	34.000
225.000	33.000
226.000	38.000
227.000	28.000
228.000	32.000
229.000	18.000
230.000	34.000
231.000	13.000
232.000	10.000
233.000	9.000
234.000	11.000
235.000	13.000
236.000	12.000
237.000	8.000
238.000	9.000
239.000	13.000
240.000	14.000
241.000	10.000
242.000	12.000
243.000	15.000
244.000	13.000
245.000	24.000
246.000	16.000
247.000	24.000
248.000	29.000
249.000	36.000
250.000	58.000
251.000	63.000
252.000	80.000
253.000	114.000
254.000	146.000
255.000	171.000
256.000	212.000
257.000	178.000
258.000	190.000
259.000	166.000
260.000	155.000
261.000	130.000
262.000	100.000
263.000	56.000
264.000	51.000
265.000	46.000
266.000	33.000
267.000	34.000
268.000	27.000
269.000	26.000
270.000	24.000
271.000	31.000
272.000	30.000
273.000	35.000
274.000	33.000
275.000	31.000
276.000	34.000
277.000	28.000
278.000	33.000
279.000	26.000
280.000	28.000
281.000	27.000
282.000	36.000
283.000	34.000
284.000	46.000
285.000	54.000
286.000	64.000
287.000	65.000
288.000	75.000
289.000	63.000
290.000	100.000
291.000	69.000
292.000	79.000
293.000	75.000
294.000	65.000
295.000	40.000
296.000	36.000
297.000	24.000
298.000	33.000
299.000	25.000
300.000	21.000
301.000	13.000
302.000	18.000
303.000	21.000
304.000	25.000
305.000	17.000
306.000	22.000
307.000	20.000
308.000	20.000
309.000	31.000
310.000	35.000
311.000	19.000
312.000	39.000
313.000	40.000
314.000	51.000
315.000	54.000
316.000	97.000
317.000	92.000
318.000	144.000
319.000	183.000
320.000	197.000
321.000	255.000
322.000	291.000
323.000	359.000
324.000	314.000
325.000	308.000
326.000	304.000
327.000	269.000
328.000	261.000
329.000	204.000
330.000	193.000
331.000	116.000
332.000	100.000
333.000	78.000
334.000	56.000
335.000	43.000
336.000	29.000
337.000	26.000
338.000	44.000
339.000	37.000
340.000	41.000
341.000	38.000
342.000	56.000
343.000	75.000
344.000	89.000
345.000	147.000
346.000	186.000
347.000	272.000
348.000	417.000
349.000	643.000
350.000	968.000
351.000	1488.000
352.000	2326.000
353.000	3230.000
354.000	4595.000
355.000	6466.000
356.000	8372.000
357.000	10459.000
358.000	12643.000
359.000	14588.000
360.000	15742.000
361.000	16402.000
362.000	15898.000
363.000	15248.000
364.000	13831.000
365.000	11977.000
366.000	9838.000
367.000	7808.000
368.000	5879.000
369.000	4095.000
370.000	2828.000
371.000	1904.000
372.000	1224.000
373.000	747.000
374.000	420.000
375.000	258.000
376.000	214.000
377.000	153.000
378.000	161.000
379.000	132.000
380.000	166.000
381.000	205.000
382.000	292.000
383.000	411.000
384.000	605.000
385.000	712.000
386.000	987.000
387.000	1224.000
388.000	1487.000
389.000	1792.000
390.000	2051.000
391.000	2291.000
392.000	2340.000
393.000	2441.000
394.000	2412.000
395.000	2218.000
396.000	1941.000
397.000	1660.000
398.000	1387.000
399.000	1059.000
400.000	831.000
401.000	582.000
402.000	385.000
403.000	250.000
404.000	181.000
405.000	120.000
406.000	70.000
407.000	55.000
408.000	23.000
409.000	18.000
410.000	17.000
411.000	10.000
412.000	18.000
413.000	4.000
414.000	9.000
415.000	10.000
416.000	6.000
417.000	11.000
418.000	11.000
419.000	15.000
420.000	6.000
421.000	14.000
422.000	12.000
423.000	8.000
424.000	9.000
425.000	11.000
426.000	14.000
427.000	20.000
428.000	23.000
429.000	31.000
430.000	48.000
431.000	57.000
432.000	96.000
433.000	112.000
434.000	137.000
435.000	177.000
436.000	249.000
437.000	292.000
438.000	345.000
439.000	386.000
440.000	367.000
441.000	376.000
442.000	378.000
443.000	361.000
444.000	338.000
445.000	284.000
446.000	267.000
447.000	201.000
448.000	199.000
449.000	130.000
450.000	109.000
451.000	88.000
452.000	74.000
453.000	62.000
454.000	55.000
455.000	46.000
456.000	52.000
457.000	52.000
458.000	52.000
459.000	44.000
460.000	22.000
461.000	32.000
462.000	24.000
463.000	34.000
464.000	25.000
465.000	27.000
466.000	18.000
467.000	22.000
468.000	22.000
469.000	25.000
470.000	28.000
471.000	38.000
472.000	31.000
473.000	34.000
474.000	34.000
475.000	38.000
476.000	64.000
477.000	61.000
478.000	70.000
479.000	79.000
480.000	74.000
481.000	87.000
482.000	78.000
483.000	82.000
484.000	76.000
485.000	85.000
486.000	76.000
487.000	71.000
488.000	68.000
489.000	46.000
490.000	44.000
491.000	41.000
492.000	41.000
493.000	29.000
494.000	19.000
495.000	10.000
496.000	16.000
497.000	22.000
498.000	33.000
499.000	15.000
500.000	15.000
501.000	21.000
502.000	20.000
503.000	23.000
504.000	19.000
505.000	21.000
506.000	16.000
507.000	20.000
508.000	18.000
509.000	25.000
510.000	22.000
511.000	22.000
512.000	29.000
513.000	33.000
514.000	28.000
515.000	32.000
516.000	35.000
517.000	35.000
518.000	31.000
519.000	24.000
520.000	47.000
521.000	48.000
522.000	30.000
523.000	56.000
524.000	44.000
525.000	60.000
526.000	61.000
527.000	55.000
528.000	65.000
529.000	81.000
530.000	61.000
531.000	54.000
532.000	54.000
533.000	44.000
534.000	53.000
535.000	40.000
536.000	33.000
537.000	37.000
538.000	38.000
539.000	31.000
540.000	26.000
541.000	33.000
542.000	27.000
543.000	29.000
544.000	27.000
545.000	29.000
546.000	24.000
547.000	32.000
548.000	25.000
549.000	26.000
550.000	17.000
551.000	30.000
552.000	30.000
553.000	25.000
554.000	35.000
555.000	26.000
556.000	31.000
557.000	35.000
558.000	33.000
559.000	38.000
560.000	49.000
561.000	47.000
562.000	30.000
563.000	52.000
564.000	61.000
565.000	54.000
566.000	68.000
567.000	79.000
568.000	110.000
569.000	125.000
570.000	130.000
571.000	168.000
572.000	192.000
573.000	229.000
574.000	228.000
575.000	249.000
576.000	259.000
577.000	244.000
578.000	225.000
579.000	209.000
580.000	195.000
581.000	177.000
582.000	149.000
583.000	149.000
584.000	117.000
585.000	101.000
586.000	62.000
587.000	65.000
588.000	54.000
589.000	52.000
590.000	44.000
591.000	45.000
592.000	47.000
593.000	44.000
594.000	38.000
595.000	37.000
596.000	44.000
597.000	59.000
598.000	41.000
599.000	48.000
600.000	51.000
601.000	46.000
602.000	54.000
603.000	69.000
604.000	69.000
605.000	96.000
606.000	89.000
607.000	136.000
608.000	187.000
609.000	270.000
610.000	324.000
611.000	488.000
612.000	648.000
613.000	931.000
614.000	1251.000
615.000	1696.000
616.000	2346.000
617.000	3108.000
618.000	3800.000
619.000	4728.000
620.000	5580.000
621.000	6578.000
622.000	7370.000
623.000	7881.000
624.000	8345.000
625.000	8471.000
626.000	8307.000
627.000	8106.000
628.000	7609.000
629.000	6979.000
630.000	6209.000
631.000	5308.000
632.000	4365.000
633.000	3535.000
634.000	2753.000
635.000	2077.000
636.000	1623.000
637.000	1136.000
638.000	857.000
639.000	568.000
640.000	412.000
641.000	311.000
642.000	217.000
643.000	133.000
644.000	108.000
645.000	101.000
646.000	78.000
647.000	80.000
648.000	78.000
649.000	72.000
650.000	52.000
651.000	55.000
652.000	90.000
653.000	78.000
654.000	78.000
655.000	65.000
656.000	65.000
657.000	73.000
658.000	67.000
659.000	70.000
660.000	83.000
661.000	81.000
662.000	75.000
663.000	77.000
664.000	80.000
665.000	84.000
666.000	72.000
667.000	96.000
668.000	101.000
669.000	100.000
670.000	94.000
671.000	122.000
672.000	132.000
673.000	171.000
674.000	166.000
675.000	234.000
676.000	219.000
677.000	298.000
678.000	384.000
679.000	448.000
680.000	548.000
681.000	666.000
682.000	749.000
683.000	874.000
684.000	1040.000
685.000	1172.000
686.000	1343.000
687.000	1347.000
688.000	1458.000
689.000	1390.000
690.000	1396.000
691.000	1302.000
692.000	1346.000
693.000	1156.000
694.000	1055.000
695.000	920.000
696.000	806.000
697.000	675.000
698.000	530.000
699.000	408.000
700.000	376.000
701.000	272.000
702.000	196.000
703.000	153.000
704.000	152.000
705.000	104.000
706.000	118.000
707.000	79.000
708.000	89.000
709.000	64.000
710.000	64.000
711.000	72.000
712.000	75.000
713.000	74.000
714.000	80.000
715.000	84.000
716.000	74.000
717.000	76.000
718.000	75.000
719.000	87.000
720.000	80.000
721.000	85.000
722.000	99.000
723.000	106.000
724.000	104.000
725.000	96.000
726.000	110.000
727.000	97.000
728.000	122.000
729.000	113.000
730.000	109.000
731.000	96.000
732.000	99.000
733.000	95.000
734.000	83.000
735.000	88.000
736.000	85.000
737.000	84.000
738.000	87.000
739.000	69.000
740.000	88.000
741.000	71.000
742.000	84.000
743.000	76.000
744.000	80.000
745.000	72.000
746.000	70.000
747.000	69.000
748.000	64.000
749.000	74.000
750.000	80.000
751.000	74.000
752.000	68.000
753.000	68.000
754.000	91.000
755.000	92.000
756.000	91.000
757.000	75.000
758.000	79.000
759.000	88.000
760.000	96.000
761.000	86.000
762.000	79.000
763.000	84.000
764.000	83.000
765.000	84.000
766.000	77.000
767.000	86.000
768.000	79.000
769.000	86.000
770.000	88.000
771.000	83.000
772.000	90.000
773.000	91.000
774.000	101.000
775.000	117.000
776.000	93.000
777.000	94.000
778.000	117.000
779.000	116.000
780.000	129.000
781.000	139.000
782.000	146.000
783.000	124.000
784.000	142.000
785.000	147.000
786.000	148.000
787.000	165.000
788.000	156.000
789.000	153.000
790.000	160.000
791.000	166.000
792.000	145.000
793.000	159.000
794.000	180.000
795.000	170.000
796.000	149.000
797.000	146.000
798.000	190.000
799.000	181.000
800.000	161.000
801.000	165.000
802.000	166.000
803.000	169.000
804.000	173.000
805.000	151.000
806.000	191.000
807.000	192.000
808.000	168.000
809.000	239.000
810.000	204.000
811.000	219.000
812.000	226.000
813.000	267.000
814.000	263.000
815.000	303.000
816.000	344.000
817.000	347.000
818.000	317.000
819.000	322.000
820.000	320.000
821.000	320.000
822.000	295.000
823.000	296.000
824.000	312.000
825.000	270.000
826.000	244.000
827.000	215.000
828.000	194.000
829.000	194.000
830.000	181.000
831.000	186.000
832.000	147.000
833.000	147.000
834.000	172.000
835.000	137.000
836.000	144.000
837.000	157.000
838.000	148.000
839.000	144.000
840.000	142.000
841.000	151.000
842.000	145.000
843.000	140.000
844.000	141.000
845.000	160.000
846.000	135.000
847.000	153.000
848.000	131.000
849.000	146.000
850.000	143.000
851.000	158.000
852.000	128.000
853.000	127.000
854.000	113.000
855.000	164.000
856.000	119.000
857.000	114.000
858.000	119.000
859.000	121.000
860.000	144.000
861.000	114.000
862.000	136.000
863.000	115.000
864.000	117.000
865.000	119.000
866.000	111.000
867.000	131.000
868.000	144.000
869.000	123.000
870.000	135.000
871.000	125.000
872.000	132.000
873.000	139.000
874.000	130.000
875.000	130.000
876.000	114.000
877.000	115.000
878.000	116.000
879.000	124.000
880.000	119.000
881.000	134.000
882.000	144.000
883.000	133.000
884.000	126.000
885.000	119.000
886.000	137.000
887.000	135.000
888.000	125.000
889.000	126.000
890.000	139.000
891.000	153.000
892.000	137.000
893.000	139.000
894.000	137.000
895.000	165.000
896.000	161.000
897.000	139.000
898.000	163.000
899.000	154.000
900.000	147.000
901.000	170.000
902.000	161.000
903.000	149.000
904.000	149.000
905.000	182.000
906.000	182.000
907.000	187.000
908.000	176.000
909.000	162.000
910.000	184.000
911.000	187.000
912.000	163.000
913.000	195.000
914.000	200.000
915.000	207.000
916.000	193.000
917.000	167.000
918.000	209.000
919.000	191.000
920.000	158.000
921.000	201.000
922.000	195.000
923.000	205.000
924.000	217.000
925.000	190.000
926.000	204.000
927.000	196.000
928.000	211.000
929.000	191.000
930.000	224.000
931.000	223.000
932.000	256.000
933.000	238.000
934.000	239.000
935.000	260.000
936.000	220.000
937.000	249.000
938.000	272.000
939.000	254.000
940.000	261.000
941.000	270.000
942.000	259.000
943.000	274.000
944.000	270.000
945.000	253.000
946.000	297.000
947.000	293.000
948.000	283.000
949.000	228.000
950.000	228.000
951.000	246.000
952.000	215.000
953.000	237.000
954.000	203.000
955.000	226.000
956.000	211.000
957.000	185.000
958.000	193.000
959.000	201.000
960.000	190.000
961.000	173.000
962.000	192.000
963.000	166.000
964.000	206.000
965.000	199.000
966.000	188.000
967.000	192.000
968.000	168.000
969.000	197.000
970.000	202.000
971.000	211.000
972.000	175.000
973.000	171.000
974.000	202.000
975.000	168.000
976.000	190.000
977.000	175.000
978.000	181.000
979.000	170.000
980.000	180.000
981.000	185.000
982.000	179.000
983.000	185.000
984.000	162.000
985.000	173.000
986.000	153.000
987.000	175.000
988.000	165.000
989.000	157.000
990.000	153.000
991.000	138.000
992.000	148.000
993.000	162.000
994.000	145.000
995.000	140.000
996.000	155.000
997.000	133.000
998.000	164.000
999.000	134.000
1000.000	120.000
1001.000	140.000
1002.000	159.000
1003.000	128.000
1004.000	141.000
1005.000	146.000
1006.000	144.000
1007.000	143.000
1008.000	125.000
1009.000	150.000
1010.000	143.000
1011.000	125.000
1012.000	134.000
1013.000	152.000
1014.000	151.000
1015.000	124.000
1016.000	152.000
1017.000	166.000
1018.000	133.000
1019.000	147.000
1020.000	175.000
1021.000	138.000
1022.000	155.000
1023.000	142.000
1024.000	159.000
1025.000	152.000
1026.000	138.000
1027.000	138.000
1028.000	177.000
1029.000	164.000
1030.000	155.000
1031.000	165.000
1032.000	133.000
1033.000	171.000
1034.000	162.000
1035.000	133.000
1036.000	157.000
1037.000	170.000
1038.000	177.000
1039.000	166.000
1040.000	165.000
1041.000	160.000
1042.000	157.000
1043.000	163.000
1044.000	176.000
1045.000	153.000
1046.000	167.000
1047.000	174.000
1048.000	145.000
1049.000	156.000
1050.000	171.000
1051.000	152.000
1052.000	170.000
1053.000	165.000
1054.000	171.000
1055.000	161.000
1056.000	173.000
1057.000	161.000
1058.000	195.000
1059.000	171.000
1060.000	155.000
1061.000	190.000
1062.000	170.000
1063.000	166.000
1064.000	199.000
1065.000	173.000
1066.000	171.000
1067.000	152.000
1068.000	159.000
1069.000	187.000
1070.000	163.000
1071.000	168.000
1072.000	173.000
1073.000	159.000
1074.000	170.000
1075.000	164.000
1076.000	157.000
1077.000	161.000
1078.000	171.000
1079.000	143.000
1080.000	182.000
1081.000	153.000
1082.000	141.000
1083.000	149.000
1084.000	166.000
1085.000	193.000
1086.000	184.000
1087.000	175.000
1088.000	167.000
1089.000	176.000
1090.000	191.000
1091.000	176.000
1092.000	179.000
1093.000	158.000
1094.000	194.000
1095.000	174.000
1096.000	187.000
1097.000	178.000
1098.000	188.000
1099.000	165.000
1100.000	164.000
1101.000	193.000
1102.000	205.000
1103.000	173.000
1104.000	197.000
1105.000	177.000
1106.000	182.000
1107.000	171.000
1108.000	168.000
1109.000	174.000
1110.000	168.000
1111.000	167.000
1112.000	173.000
1113.000	201.000
1114.000	178.000
1115.000	169.000
1116.000	150.000
1117.000	158.000
1118.000	162.000
1119.000	167.000
1120.000	163.000
1121.000	154.000
1122.000	158.000
1123.000	161.000
1124.000	167.000
1125.000	204.000
1126.000	170.000
1127.000	149.000
1128.000	151.000
1129.000	185.000
1130.000	180.000
1131.000	174.000
1132.000	170.000
1133.000	180.000
1134.000	169.000
1135.000	164.000
1136.000	184.000
1137.000	167.000
1138.000	170.000
1139.000	176.000
1140.000	172.000
1141.000	187.000
1142.000	174.000
1143.000	172.000
1144.000	170.000
1145.000	176.000
1146.000	181.000
1147.000	180.000
1148.000	182.000
1149.000	186.000
1150.000	177.000
1151.000	170.000
1152.000	178.000
1153.000	167.000
1154.000	186.000
