Date:	24-Sep-20		Time:	12:54 AM		Version no:	0.00		Project name:	55		Sample name:	222		Section name:	section		Position	0.000000	mm	E0	0.000000	keV	E1	1.000000	keV/channel	sample surface	2.000000	cm	Tube anode:	Mo		Tube voltage:	30	kV	Tube current:	30	mA	gain	15		std. database			resultfile	result		matrix element	11		sample thickness	1.000000		air passage	0.560000	cm	comments	not in position		peaking_time	0.300000	m-sec	trigger_threshold	40.000000	V	mca_bin_width	2.000000	no:	number_mca_channels	2048.000000	no:	gap_time	2048.000000	m-sec	trigger_peaking_time	2048.000000	m-sec	GAINDAC	400		HIGHGAIN	400		TAURC	400		RCTAU	400		RCTAUFRAC	400		livetime	13.468987	seconds	runtime	15.000277	seconds	input_count_rate	47924.166541	cps	output_count_rate	43031.872011	cps	triggers	707539	seconds	events_in_run	630507	seconds	channel	content		1.000	0.000
2.000	0.000
3.000	0.000
4.000	0.000
5.000	0.000
6.000	0.000
7.000	0.000
8.000	0.000
9.000	0.000
10.000	0.000
11.000	0.000
12.000	0.000
13.000	0.000
14.000	0.000
15.000	0.000
16.000	0.000
17.000	0.000
18.000	0.000
19.000	0.000
20.000	0.000
21.000	0.000
22.000	0.000
23.000	0.000
24.000	0.000
25.000	0.000
26.000	0.000
27.000	0.000
28.000	0.000
29.000	0.000
30.000	0.000
31.000	58.000
32.000	59.000
33.000	64.000
34.000	50.000
35.000	44.000
36.000	44.000
37.000	53.000
38.000	43.000
39.000	45.000
40.000	49.000
41.000	48.000
42.000	61.000
43.000	49.000
44.000	44.000
45.000	58.000
46.000	60.000
47.000	69.000
48.000	89.000
49.000	122.000
50.000	158.000
51.000	227.000
52.000	324.000
53.000	416.000
54.000	578.000
55.000	738.000
56.000	1047.000
57.000	1409.000
58.000	1939.000
59.000	2803.000
60.000	3691.000
61.000	4156.000
62.000	4520.000
63.000	4652.000
64.000	4664.000
65.000	4635.000
66.000	4289.000
67.000	4083.000
68.000	4070.000
69.000	4026.000
70.000	3955.000
71.000	3901.000
72.000	3855.000
73.000	3745.000
74.000	3867.000
75.000	3747.000
76.000	3761.000
77.000	3749.000
78.000	3694.000
79.000	3701.000
80.000	3645.000
81.000	3829.000
82.000	3891.000
83.000	3880.000
84.000	3859.000
85.000	3865.000
86.000	3907.000
87.000	3866.000
88.000	3699.000
89.000	3597.000
90.000	3652.000
91.000	3545.000
92.000	3422.000
93.000	3399.000
94.000	3306.000
95.000	3244.000
96.000	3196.000
97.000	3213.000
98.000	3142.000
99.000	3214.000
100.000	3138.000
101.000	3055.000
102.000	3140.000
103.000	3111.000
104.000	2994.000
105.000	3042.000
106.000	2987.000
107.000	2945.000
108.000	2950.000
109.000	2888.000
110.000	2823.000
111.000	2609.000
112.000	2723.000
113.000	2811.000
114.000	2695.000
115.000	2746.000
116.000	2748.000
117.000	2747.000
118.000	2751.000
119.000	2683.000
120.000	2699.000
121.000	2619.000
122.000	2604.000
123.000	2569.000
124.000	2471.000
125.000	2504.000
126.000	2352.000
127.000	2382.000
128.000	2384.000
129.000	2287.000
130.000	2246.000
131.000	2307.000
132.000	2193.000
133.000	2227.000
134.000	2229.000
135.000	2307.000
136.000	2238.000
137.000	2300.000
138.000	2340.000
139.000	2600.000
140.000	2824.000
141.000	3074.000
142.000	3426.000
143.000	3700.000
144.000	4243.000
145.000	4378.000
146.000	4434.000
147.000	4286.000
148.000	4122.000
149.000	3946.000
150.000	3536.000
151.000	3370.000
152.000	3322.000
153.000	3194.000
154.000	3198.000
155.000	3073.000
156.000	2870.000
157.000	2661.000
158.000	2492.000
159.000	2355.000
160.000	2298.000
161.000	2417.000
162.000	2689.000
163.000	3351.000
164.000	4342.000
165.000	5963.000
166.000	7894.000
167.000	10177.000
168.000	12575.000
169.000	14369.000
170.000	15362.000
171.000	15905.000
172.000	15089.000
173.000	13275.000
174.000	11348.000
175.000	9247.000
176.000	7265.000
177.000	5882.000
178.000	4971.000
179.000	4364.000
180.000	4198.000
181.000	4179.000
182.000	4453.000
183.000	5082.000
184.000	5915.000
185.000	7315.000
186.000	9080.000
187.000	11481.000
188.000	13695.000
189.000	16167.000
190.000	17222.000
191.000	18069.000
192.000	17310.000
193.000	15744.000
194.000	13434.000
195.000	10912.000
196.000	8529.000
197.000	6434.000
198.000	4837.000
199.000	3669.000
200.000	2916.000
201.000	2489.000
202.000	2185.000
203.000	1988.000
204.000	1926.000
205.000	1877.000
206.000	1935.000
207.000	1961.000
208.000	1897.000
209.000	1949.000
210.000	2004.000
211.000	1971.000
212.000	1988.000
213.000	2079.000
214.000	2176.000
215.000	2215.000
216.000	2526.000
217.000	2688.000
218.000	3017.000
219.000	3283.000
220.000	3681.000
221.000	3987.000
222.000	4213.000
223.000	4350.000
224.000	4399.000
225.000	4224.000
226.000	3981.000
227.000	3633.000
228.000	3256.000
229.000	2923.000
230.000	2467.000
231.000	2287.000
232.000	2043.000
233.000	1913.000
234.000	1805.000
235.000	1757.000
236.000	1748.000
237.000	1715.000
238.000	1625.000
239.000	1674.000
240.000	1674.000
241.000	1611.000
242.000	1727.000
243.000	1805.000
244.000	1938.000
245.000	2146.000
246.000	2436.000
247.000	3011.000
248.000	3883.000
249.000	5285.000
250.000	7135.000
251.000	9578.000
252.000	12701.000
253.000	16043.000
254.000	18970.000
255.000	21760.000
256.000	24105.000
257.000	24804.000
258.000	24344.000
259.000	22560.000
260.000	19608.000
261.000	16229.000
262.000	12953.000
263.000	9883.000
264.000	7270.000
265.000	5511.000
266.000	4271.000
267.000	3778.000
268.000	3373.000
269.000	3340.000
270.000	3492.000
271.000	3730.000
272.000	3927.000
273.000	4267.000
274.000	4433.000
275.000	4629.000
276.000	4637.000
277.000	4505.000
278.000	4312.000
279.000	4399.000
280.000	4143.000
281.000	4231.000
282.000	4527.000
283.000	5095.000
284.000	6106.000
285.000	7171.000
286.000	8125.000
287.000	9531.000
288.000	10488.000
289.000	10836.000
290.000	11329.000
291.000	11008.000
292.000	10151.000
293.000	8960.000
294.000	7650.000
295.000	6327.000
296.000	5236.000
297.000	4154.000
298.000	3477.000
299.000	2893.000
300.000	2530.000
301.000	2303.000
302.000	2345.000
303.000	2329.000
304.000	2383.000
305.000	2499.000
306.000	2613.000
307.000	2865.000
308.000	3078.000
309.000	3553.000
310.000	3926.000
311.000	4505.000
312.000	5309.000
313.000	6492.000
314.000	8633.000
315.000	11659.000
316.000	15781.000
317.000	21671.000
318.000	29204.000
319.000	38164.000
320.000	48642.000
321.000	59229.000
322.000	68162.000
323.000	75273.000
324.000	79611.000
325.000	79563.000
326.000	76418.000
327.000	69763.000
328.000	59718.000
329.000	49596.000
330.000	39030.000
331.000	29489.000
332.000	21549.000
333.000	15296.000
334.000	10442.000
335.000	7418.000
336.000	5630.000
337.000	4560.000
338.000	4119.000
339.000	4167.000
340.000	4475.000
341.000	5239.000
342.000	6331.000
343.000	7943.000
344.000	10231.000
345.000	13725.000
346.000	19164.000
347.000	27166.000
348.000	39816.000
349.000	59465.000
350.000	88297.000
351.000	134713.000
352.000	200375.000
353.000	289742.000
354.000	407885.000
355.000	552109.000
356.000	720530.000
357.000	899430.000
358.000	1074816.000
359.000	1225032.000
360.000	1334745.000
361.000	1389609.000
362.000	1380852.000
363.000	1307761.000
364.000	1183627.000
365.000	1019312.000
366.000	840769.000
367.000	660118.000
368.000	497059.000
369.000	357031.000
370.000	246041.000
371.000	161611.000
372.000	103161.000
373.000	64123.000
374.000	39478.000
375.000	24742.000
376.000	16882.000
377.000	13298.000
378.000	12200.000
379.000	13127.000
380.000	15496.000
381.000	20015.000
382.000	26272.000
383.000	35675.000
384.000	48211.000
385.000	64111.000
386.000	83318.000
387.000	106444.000
388.000	132174.000
389.000	157159.000
390.000	178435.000
391.000	196837.000
392.000	206938.000
393.000	209490.000
394.000	204053.000
395.000	189172.000
396.000	168857.000
397.000	144394.000
398.000	118786.000
399.000	93794.000
400.000	69861.000
401.000	51138.000
402.000	35837.000
403.000	24450.000
404.000	16184.000
405.000	10548.000
406.000	6919.000
407.000	4645.000
408.000	3414.000
409.000	2544.000
410.000	2106.000
411.000	1803.000
412.000	1725.000
413.000	1569.000
414.000	1546.000
415.000	1504.000
416.000	1553.000
417.000	1557.000
418.000	1616.000
419.000	1639.000
420.000	1688.000
421.000	1775.000
422.000	1742.000
423.000	1976.000
424.000	2173.000
425.000	2586.000
426.000	3184.000
427.000	4046.000
428.000	5356.000
429.000	7463.000
430.000	10240.000
431.000	14602.000
432.000	19846.000
433.000	26932.000
434.000	34750.000
435.000	44844.000
436.000	54870.000
437.000	65346.000
438.000	74692.000
439.000	82282.000
440.000	86840.000
441.000	88165.000
442.000	87354.000
443.000	82508.000
444.000	74936.000
445.000	65884.000
446.000	56354.000
447.000	46400.000
448.000	37450.000
449.000	29918.000
450.000	24408.000
451.000	19596.000
452.000	16706.000
453.000	14518.000
454.000	13127.000
455.000	11938.000
456.000	11099.000
457.000	10156.000
458.000	9533.000
459.000	8514.000
460.000	7809.000
461.000	6647.000
462.000	5961.000
463.000	5375.000
464.000	5002.000
465.000	4754.000
466.000	4821.000
467.000	4950.000
468.000	5211.000
469.000	5803.000
470.000	6237.000
471.000	7070.000
472.000	7726.000
473.000	8734.000
474.000	10091.000
475.000	11408.000
476.000	12756.000
477.000	14237.000
478.000	15670.000
479.000	17169.000
480.000	18513.000
481.000	19631.000
482.000	19619.000
483.000	19618.000
484.000	19161.000
485.000	17964.000
486.000	16464.000
487.000	14630.000
488.000	12807.000
489.000	11299.000
490.000	9492.000
491.000	7960.000
492.000	6825.000
493.000	5880.000
494.000	5116.000
495.000	4653.000
496.000	4355.000
497.000	4015.000
498.000	4116.000
499.000	4081.000
500.000	4121.000
501.000	4222.000
502.000	4348.000
503.000	4433.000
504.000	4539.000
505.000	4706.000
506.000	4765.000
507.000	5102.000
508.000	5184.000
509.000	5196.000
510.000	5479.000
511.000	5413.000
512.000	5615.000
513.000	5996.000
514.000	6275.000
515.000	6330.000
516.000	6523.000
517.000	6789.000
518.000	6954.000
519.000	7347.000
520.000	7995.000
521.000	8441.000
522.000	8825.000
523.000	9370.000
524.000	10013.000
525.000	10615.000
526.000	11176.000
527.000	11597.000
528.000	11783.000
529.000	12120.000
530.000	12074.000
531.000	11516.000
532.000	10966.000
533.000	10306.000
534.000	9615.000
535.000	8727.000
536.000	8015.000
537.000	7515.000
538.000	6750.000
539.000	6292.000
540.000	6084.000
541.000	5819.000
542.000	5553.000
543.000	5457.000
544.000	5385.000
545.000	5385.000
546.000	5351.000
547.000	5297.000
548.000	5276.000
549.000	5427.000
550.000	5307.000
551.000	5352.000
552.000	5430.000
553.000	5455.000
554.000	5587.000
555.000	5655.000
556.000	5891.000
557.000	5981.000
558.000	6189.000
559.000	6508.000
560.000	7029.000
561.000	7650.000
562.000	8795.000
563.000	10078.000
564.000	12008.000
565.000	14374.000
566.000	17679.000
567.000	21703.000
568.000	26459.000
569.000	32008.000
570.000	38213.000
571.000	44371.000
572.000	51068.000
573.000	56564.000
574.000	61220.000
575.000	63841.000
576.000	65274.000
577.000	64619.000
578.000	62626.000
579.000	58207.000
580.000	52756.000
581.000	46781.000
582.000	40962.000
583.000	34679.000
584.000	28583.000
585.000	23541.000
586.000	19267.000
587.000	16189.000
588.000	13338.000
589.000	11467.000
590.000	9957.000
591.000	9183.000
592.000	8626.000
593.000	8335.000
594.000	8318.000
595.000	8539.000
596.000	8750.000
597.000	8796.000
598.000	9174.000
599.000	9787.000
600.000	10287.000
601.000	10997.000
602.000	11682.000
603.000	13254.000
604.000	15116.000
605.000	17735.000
606.000	22386.000
607.000	29115.000
608.000	39726.000
609.000	55124.000
610.000	79437.000
611.000	114371.000
612.000	163272.000
613.000	229564.000
614.000	318248.000
615.000	432479.000
616.000	573665.000
617.000	742606.000
618.000	931674.000
619.000	1139895.000
620.000	1349314.000
621.000	1554109.000
622.000	1740754.000
623.000	1895519.000
624.000	1998446.000
625.000	2046381.000
626.000	2035901.000
627.000	1962927.000
628.000	1839218.000
629.000	1667235.000
630.000	1474913.000
631.000	1260897.000
632.000	1050288.000
633.000	848971.000
634.000	668467.000
635.000	510527.000
636.000	381693.000
637.000	277691.000
638.000	198936.000
639.000	138950.000
640.000	96584.000
641.000	67473.000
642.000	47240.000
643.000	34014.000
644.000	25790.000
645.000	20480.000
646.000	17143.000
647.000	15076.000
648.000	13826.000
649.000	13371.000
650.000	12806.000
651.000	12424.000
652.000	12588.000
653.000	12604.000
654.000	12448.000
655.000	12693.000
656.000	12661.000
657.000	12734.000
658.000	12906.000
659.000	13326.000
660.000	13442.000
661.000	13918.000
662.000	14420.000
663.000	14784.000
664.000	15235.000
665.000	15789.000
666.000	16589.000
667.000	17538.000
668.000	18745.000
669.000	19984.000
670.000	21589.000
671.000	24210.000
672.000	27063.000
673.000	31207.000
674.000	36567.000
675.000	44005.000
676.000	53451.000
677.000	65722.000
678.000	81751.000
679.000	100648.000
680.000	123267.000
681.000	149625.000
682.000	179135.000
683.000	209544.000
684.000	240058.000
685.000	269134.000
686.000	294058.000
687.000	314193.000
688.000	327886.000
689.000	333640.000
690.000	328571.000
691.000	318563.000
692.000	298878.000
693.000	272616.000
694.000	244184.000
695.000	212485.000
696.000	181621.000
697.000	150520.000
698.000	122517.000
699.000	97725.000
700.000	76244.000
701.000	59636.000
702.000	45532.000
703.000	35547.000
704.000	27383.000
705.000	21841.000
706.000	17640.000
707.000	15087.000
708.000	13193.000
709.000	11954.000
710.000	11271.000
711.000	11170.000
712.000	10979.000
713.000	10682.000
714.000	10818.000
715.000	11310.000
716.000	11709.000
717.000	11837.000
718.000	12403.000
719.000	12802.000
720.000	13567.000
721.000	13789.000
722.000	14525.000
723.000	15536.000
724.000	15913.000
725.000	16366.000
726.000	16669.000
727.000	17592.000
728.000	17445.000
729.000	17864.000
730.000	18133.000
731.000	17650.000
732.000	17133.000
733.000	16876.000
734.000	16355.000
735.000	15856.000
736.000	15273.000
737.000	14805.000
738.000	14107.000
739.000	13640.000
740.000	13302.000
741.000	12877.000
742.000	12507.000
743.000	12358.000
744.000	12345.000
745.000	12205.000
746.000	12132.000
747.000	12038.000
748.000	12156.000
749.000	12367.000
750.000	12303.000
751.000	12094.000
752.000	12439.000
753.000	12319.000
754.000	12376.000
755.000	12343.000
756.000	12486.000
757.000	12554.000
758.000	12467.000
759.000	12608.000
760.000	12530.000
761.000	12670.000
762.000	12898.000
763.000	12869.000
764.000	13218.000
765.000	13332.000
766.000	13425.000
767.000	13485.000
768.000	13744.000
769.000	13953.000
770.000	14439.000
771.000	14558.000
772.000	15106.000
773.000	15781.000
774.000	16260.000
775.000	16762.000
776.000	17696.000
777.000	18776.000
778.000	19200.000
779.000	20192.000
780.000	21468.000
781.000	22076.000
782.000	23367.000
783.000	24202.000
784.000	25426.000
785.000	25639.000
786.000	26447.000
787.000	26949.000
788.000	26869.000
789.000	26918.000
790.000	27259.000
791.000	27154.000
792.000	27373.000
793.000	27006.000
794.000	26968.000
795.000	26812.000
796.000	26912.000
797.000	26722.000
798.000	26810.000
799.000	26732.000
800.000	26741.000
801.000	26565.000
802.000	26624.000
803.000	26737.000
804.000	27515.000
805.000	27900.000
806.000	28520.000
807.000	29329.000
808.000	30756.000
809.000	31859.000
810.000	33716.000
811.000	35440.000
812.000	37772.000
813.000	40194.000
814.000	42374.000
815.000	44228.000
816.000	46273.000
817.000	47757.000
818.000	49096.000
819.000	49188.000
820.000	48937.000
821.000	48156.000
822.000	46165.000
823.000	44878.000
824.000	42066.000
825.000	39859.000
826.000	37294.000
827.000	34151.000
828.000	31715.000
829.000	29340.000
830.000	27288.000
831.000	25691.000
832.000	24369.000
833.000	23649.000
834.000	23076.000
835.000	23023.000
836.000	23060.000
837.000	23386.000
838.000	23463.000
839.000	24009.000
840.000	24237.000
841.000	24743.000
842.000	24497.000
843.000	24869.000
844.000	24551.000
845.000	24606.000
846.000	24139.000
847.000	23684.000
848.000	23032.000
849.000	22741.000
850.000	22176.000
851.000	21708.000
852.000	21480.000
853.000	20845.000
854.000	20191.000
855.000	20106.000
856.000	19959.000
857.000	19858.000
858.000	19420.000
859.000	19261.000
860.000	19593.000
861.000	19265.000
862.000	19738.000
863.000	19558.000
864.000	19775.000
865.000	19458.000
866.000	20061.000
867.000	19988.000
868.000	20293.000
869.000	20016.000
870.000	20399.000
871.000	20351.000
872.000	20293.000
873.000	20237.000
874.000	20208.000
875.000	20287.000
876.000	20302.000
877.000	20264.000
878.000	20204.000
879.000	20166.000
880.000	20504.000
881.000	20464.000
882.000	20588.000
883.000	20646.000
884.000	20617.000
885.000	20662.000
886.000	21009.000
887.000	21260.000
888.000	21641.000
889.000	21545.000
890.000	21796.000
891.000	22406.000
892.000	22775.000
893.000	22847.000
894.000	23179.000
895.000	23558.000
896.000	23888.000
897.000	24555.000
898.000	24709.000
899.000	25348.000
900.000	25925.000
901.000	26530.000
902.000	26622.000
903.000	27181.000
904.000	27223.000
905.000	27749.000
906.000	27718.000
907.000	28244.000
908.000	28617.000
909.000	28938.000
910.000	29022.000
911.000	29305.000
912.000	29493.000
913.000	29559.000
914.000	29849.000
915.000	29821.000
916.000	29976.000
917.000	30142.000
918.000	30517.000
919.000	30351.000
920.000	30650.000
921.000	30763.000
922.000	30601.000
923.000	31254.000
924.000	31242.000
925.000	31415.000
926.000	31915.000
927.000	32147.000
928.000	32605.000
929.000	33162.000
930.000	33349.000
931.000	34202.000
932.000	35038.000
933.000	35038.000
934.000	36356.000
935.000	36968.000
936.000	38246.000
937.000	38575.000
938.000	39763.000
939.000	40975.000
940.000	41617.000
941.000	42648.000
942.000	42954.000
943.000	43138.000
944.000	43110.000
945.000	42376.000
946.000	41621.000
947.000	41329.000
948.000	40060.000
949.000	38885.000
950.000	37745.000
951.000	36456.000
952.000	35127.000
953.000	33859.000
954.000	33148.000
955.000	31924.000
956.000	31014.000
957.000	30283.000
958.000	29862.000
959.000	29265.000
960.000	29212.000
961.000	29345.000
962.000	28927.000
963.000	29418.000
964.000	29082.000
965.000	29308.000
966.000	29613.000
967.000	29850.000
968.000	30041.000
969.000	30434.000
970.000	30573.000
971.000	30492.000
972.000	30618.000
973.000	30447.000
974.000	30258.000
975.000	30051.000
976.000	29112.000
977.000	28830.000
978.000	28616.000
979.000	27910.000
980.000	27732.000
981.000	27149.000
982.000	26834.000
983.000	26144.000
984.000	25482.000
985.000	25283.000
986.000	25146.000
987.000	24924.000
988.000	24373.000
989.000	24466.000
990.000	24079.000
991.000	24203.000
992.000	23902.000
993.000	23670.000
994.000	23719.000
995.000	23420.000
996.000	23360.000
997.000	23061.000
998.000	23007.000
999.000	22894.000
1000.000	22927.000
1001.000	23060.000
1002.000	23026.000
1003.000	22881.000
1004.000	22499.000
1005.000	22516.000
1006.000	22759.000
1007.000	22681.000
1008.000	22795.000
1009.000	22996.000
1010.000	22881.000
1011.000	23212.000
1012.000	23048.000
1013.000	22814.000
1014.000	22964.000
1015.000	23423.000
1016.000	23523.000
1017.000	23483.000
1018.000	23513.000
1019.000	23832.000
1020.000	23742.000
1021.000	24358.000
1022.000	23940.000
1023.000	24238.000
1024.000	24690.000
1025.000	24849.000
1026.000	24926.000
1027.000	24733.000
1028.000	25373.000
1029.000	24994.000
1030.000	25104.000
1031.000	24942.000
1032.000	25262.000
1033.000	24825.000
