Date:	22-Sep-20		Time:	10:49 PM		Version no:	0.00		Project name:	55		Sample name:	222		Section name:	section		Position	0.000000	mm	E0	0.000000	keV	E1	1.000000	keV/channel	sample surface	2.000000	cm	Tube anode:	Mo		Tube voltage:	30	kV	Tube current:	30	mA	gain	15		std. database			resultfile	result		matrix element	11		sample thickness	1.000000		air passage	0.560000	cm	comments	not in position		peaking_time	0.300000	m-sec	trigger_threshold	40.000000	V	mca_bin_width	2.000000	no:	number_mca_channels	2048.000000	no:	gap_time	2048.000000	m-sec	trigger_peaking_time	2048.000000	m-sec	GAINDAC	400		HIGHGAIN	400		TAURC	400		RCTAU	400		RCTAUFRAC	400		livetime	12.778311	seconds	runtime	15.000098	seconds	input_count_rate	8453.386602	cps	output_count_rate	7201.286285	cps	triggers	126178	seconds	events_in_run	98622	seconds	channel	content		1.000	0.000
2.000	0.000
3.000	0.000
4.000	0.000
5.000	0.000
6.000	0.000
7.000	0.000
8.000	0.000
9.000	0.000
10.000	0.000
11.000	0.000
12.000	0.000
13.000	0.000
14.000	0.000
15.000	0.000
16.000	0.000
17.000	0.000
18.000	0.000
19.000	0.000
20.000	0.000
21.000	0.000
22.000	0.000
23.000	0.000
24.000	0.000
25.000	0.000
26.000	0.000
27.000	0.000
28.000	0.000
29.000	0.000
30.000	0.000
31.000	397.000
32.000	394.000
33.000	405.000
34.000	378.000
35.000	386.000
36.000	401.000
37.000	387.000
38.000	392.000
39.000	353.000
40.000	379.000
41.000	361.000
42.000	379.000
43.000	396.000
44.000	387.000
45.000	405.000
46.000	475.000
47.000	541.000
48.000	672.000
49.000	909.000
50.000	1191.000
51.000	1798.000
52.000	2500.000
53.000	3368.000
54.000	4563.000
55.000	6036.000
56.000	7967.000
57.000	10986.000
58.000	16015.000
59.000	22543.000
60.000	28505.000
61.000	33031.000
62.000	36364.000
63.000	37676.000
64.000	37339.000
65.000	36304.000
66.000	34876.000
67.000	33720.000
68.000	32720.000
69.000	32289.000
70.000	31608.000
71.000	31219.000
72.000	30781.000
73.000	31031.000
74.000	30505.000
75.000	30133.000
76.000	30037.000
77.000	29869.000
78.000	29945.000
79.000	29712.000
80.000	29894.000
81.000	29761.000
82.000	30502.000
83.000	30829.000
84.000	30980.000
85.000	31227.000
86.000	31206.000
87.000	30417.000
88.000	30200.000
89.000	29395.000
90.000	29154.000
91.000	28336.000
92.000	27133.000
93.000	27078.000
94.000	26949.000
95.000	26540.000
96.000	25927.000
97.000	26093.000
98.000	25724.000
99.000	25358.000
100.000	25340.000
101.000	25132.000
102.000	24669.000
103.000	24373.000
104.000	24467.000
105.000	24217.000
106.000	23857.000
107.000	23721.000
108.000	23435.000
109.000	23254.000
110.000	22850.000
111.000	23155.000
112.000	22323.000
113.000	22157.000
114.000	21915.000
115.000	22201.000
116.000	22194.000
117.000	22193.000
118.000	21997.000
119.000	21769.000
120.000	21536.000
121.000	21341.000
122.000	21123.000
123.000	20631.000
124.000	20354.000
125.000	19797.000
126.000	19498.000
127.000	19525.000
128.000	19480.000
129.000	18992.000
130.000	18971.000
131.000	18665.000
132.000	18783.000
133.000	18611.000
134.000	18539.000
135.000	18689.000
136.000	18464.000
137.000	18770.000
138.000	19432.000
139.000	20203.000
140.000	21571.000
141.000	23400.000
142.000	26052.000
143.000	28248.000
144.000	30242.000
145.000	31594.000
146.000	32266.000
147.000	31178.000
148.000	29857.000
149.000	27760.000
150.000	26145.000
151.000	24685.000
152.000	23587.000
153.000	22845.000
154.000	22040.000
155.000	21381.000
156.000	20476.000
157.000	19286.000
158.000	18484.000
159.000	17898.000
160.000	17446.000
161.000	17763.000
162.000	19685.000
163.000	22445.000
164.000	28081.000
165.000	35826.000
166.000	45868.000
167.000	57580.000
168.000	69666.000
169.000	79740.000
170.000	86228.000
171.000	87413.000
172.000	83602.000
173.000	75508.000
174.000	65513.000
175.000	54956.000
176.000	45930.000
177.000	39539.000
178.000	36034.000
179.000	34932.000
180.000	35666.000
181.000	38731.000
182.000	44842.000
183.000	54738.000
184.000	69674.000
185.000	90709.000
186.000	118267.000
187.000	150888.000
188.000	183700.000
189.000	212750.000
190.000	233794.000
191.000	239962.000
192.000	232471.000
193.000	209802.000
194.000	179795.000
195.000	143369.000
196.000	109589.000
197.000	80083.000
198.000	57625.000
199.000	41435.000
200.000	30575.000
201.000	24464.000
202.000	20719.000
203.000	18444.000
204.000	17810.000
205.000	17417.000
206.000	17330.000
207.000	17255.000
208.000	17620.000
209.000	18113.000
210.000	18018.000
211.000	18599.000
212.000	19103.000
213.000	20281.000
214.000	21224.000
215.000	23084.000
216.000	25765.000
217.000	29043.000
218.000	32953.000
219.000	37238.000
220.000	41888.000
221.000	45352.000
222.000	48259.000
223.000	48712.000
224.000	47638.000
225.000	45671.000
226.000	41782.000
227.000	37300.000
228.000	32746.000
229.000	28433.000
230.000	24668.000
231.000	21440.000
232.000	19347.000
233.000	17397.000
234.000	16221.000
235.000	15576.000
236.000	15165.000
237.000	15063.000
238.000	14837.000
239.000	14872.000
240.000	14993.000
241.000	14991.000
242.000	15154.000
243.000	15720.000
244.000	16758.000
245.000	17945.000
246.000	20591.000
247.000	24753.000
248.000	31746.000
249.000	41913.000
250.000	56565.000
251.000	75774.000
252.000	98164.000
253.000	124072.000
254.000	148925.000
255.000	171903.000
256.000	187139.000
257.000	191906.000
258.000	187515.000
259.000	174214.000
260.000	152348.000
261.000	126735.000
262.000	101409.000
263.000	76587.000
264.000	58222.000
265.000	43591.000
266.000	34388.000
267.000	28620.000
268.000	25867.000
269.000	25381.000
270.000	26392.000
271.000	28370.000
272.000	30609.000
273.000	32757.000
274.000	34760.000
275.000	36266.000
276.000	36272.000
277.000	36061.000
278.000	34969.000
279.000	34197.000
280.000	33476.000
281.000	33849.000
282.000	36071.000
283.000	40268.000
284.000	46157.000
285.000	53458.000
286.000	62047.000
287.000	70670.000
288.000	78200.000
289.000	82183.000
290.000	83436.000
291.000	81844.000
292.000	75957.000
293.000	68674.000
294.000	59416.000
295.000	50266.000
296.000	41935.000
297.000	35025.000
298.000	30096.000
299.000	26090.000
300.000	24332.000
301.000	22811.000
302.000	22430.000
303.000	22878.000
304.000	23464.000
305.000	24511.000
306.000	25870.000
307.000	27743.000
308.000	29470.000
309.000	31757.000
310.000	34523.000
311.000	37865.000
312.000	41763.000
313.000	48275.000
314.000	57752.000
315.000	71718.000
316.000	92035.000
317.000	120773.000
318.000	157245.000
319.000	201449.000
320.000	249748.000
321.000	300259.000
322.000	344083.000
323.000	378494.000
324.000	396644.000
325.000	399405.000
326.000	380100.000
327.000	346643.000
328.000	302258.000
329.000	251915.000
330.000	199727.000
331.000	153248.000
332.000	115307.000
333.000	85490.000
334.000	63660.000
335.000	49561.000
336.000	41551.000
337.000	38006.000
338.000	38311.000
339.000	40551.000
340.000	45605.000
341.000	53376.000
342.000	65060.000
343.000	82290.000
344.000	106754.000
345.000	146271.000
346.000	208038.000
347.000	307517.000
348.000	471644.000
349.000	734282.000
350.000	1146145.000
351.000	1772433.000
352.000	2688192.000
353.000	3954263.000
354.000	5608279.000
355.000	7651096.000
356.000	10016982.000
357.000	12534329.000
358.000	14988482.000
359.000	17136389.000
360.000	18727719.000
361.000	19473882.000
362.000	19347376.000
363.000	18343580.000
364.000	16617802.000
365.000	14314886.000
366.000	11789021.000
367.000	9277162.000
368.000	6970148.000
369.000	4999330.000
370.000	3434319.000
371.000	2267307.000
372.000	1440676.000
373.000	890898.000
374.000	544557.000
375.000	340305.000
376.000	229061.000
377.000	175871.000
378.000	161698.000
379.000	173736.000
380.000	209278.000
381.000	268798.000
382.000	358734.000
383.000	486526.000
384.000	659866.000
385.000	884701.000
386.000	1155750.000
387.000	1476562.000
388.000	1821239.000
389.000	2168612.000
390.000	2484323.000
391.000	2736399.000
392.000	2884497.000
393.000	2920068.000
394.000	2835006.000
395.000	2637632.000
396.000	2345632.000
397.000	2002924.000
398.000	1636711.000
399.000	1283914.000
400.000	963623.000
401.000	695759.000
402.000	483439.000
403.000	322701.000
404.000	208726.000
405.000	131398.000
406.000	82067.000
407.000	50875.000
408.000	32262.000
409.000	21504.000
410.000	16016.000
411.000	12479.000
412.000	10907.000
413.000	9885.000
414.000	9704.000
415.000	9389.000
416.000	9264.000
417.000	9467.000
418.000	9429.000
419.000	9381.000
420.000	9594.000
421.000	9619.000
422.000	10048.000
423.000	10511.000
424.000	11271.000
425.000	12442.000
426.000	14488.000
427.000	17494.000
428.000	22544.000
429.000	29567.000
430.000	39862.000
431.000	54559.000
432.000	73199.000
433.000	97789.000
434.000	126818.000
435.000	161169.000
436.000	195474.000
437.000	231381.000
438.000	265766.000
439.000	291650.000
440.000	309935.000
441.000	316390.000
442.000	311191.000
443.000	293139.000
444.000	267822.000
445.000	236130.000
446.000	202387.000
447.000	167384.000
448.000	136016.000
449.000	109435.000
450.000	89058.000
451.000	73126.000
452.000	61841.000
453.000	54355.000
454.000	49009.000
455.000	45802.000
456.000	42732.000
457.000	39931.000
458.000	37186.000
459.000	34000.000
460.000	30812.000
461.000	28470.000
462.000	25658.000
463.000	23665.000
464.000	22129.000
465.000	21664.000
466.000	21487.000
467.000	21805.000
468.000	22971.000
469.000	24500.000
470.000	26289.000
471.000	28278.000
472.000	31285.000
473.000	34547.000
474.000	38501.000
475.000	42682.000
476.000	47956.000
477.000	53107.000
478.000	58640.000
479.000	63463.000
480.000	68304.000
481.000	71071.000
482.000	72674.000
483.000	72651.000
484.000	71186.000
485.000	66993.000
486.000	62176.000
487.000	56632.000
488.000	49887.000
489.000	43760.000
490.000	37783.000
491.000	33070.000
492.000	28534.000
493.000	25133.000
494.000	23235.000
495.000	21405.000
496.000	20456.000
497.000	19671.000
498.000	19673.000
499.000	19378.000
500.000	20075.000
501.000	20314.000
502.000	20855.000
503.000	21382.000
504.000	22078.000
505.000	22397.000
506.000	23125.000
507.000	23528.000
508.000	24266.000
509.000	25329.000
510.000	25517.000
511.000	26580.000
512.000	27277.000
513.000	28073.000
514.000	28761.000
515.000	29647.000
516.000	30649.000
517.000	32217.000
518.000	33169.000
519.000	34990.000
520.000	37200.000
521.000	39518.000
522.000	41608.000
523.000	44635.000
524.000	47725.000
525.000	50661.000
526.000	53228.000
527.000	55514.000
528.000	56503.000
529.000	57212.000
530.000	56690.000
531.000	55099.000
532.000	52402.000
533.000	49402.000
534.000	45739.000
535.000	42257.000
536.000	39181.000
537.000	36398.000
538.000	34029.000
539.000	31588.000
540.000	30294.000
541.000	28924.000
542.000	28249.000
543.000	27378.000
544.000	27247.000
545.000	27301.000
546.000	26981.000
547.000	27210.000
548.000	27388.000
549.000	27735.000
550.000	28015.000
551.000	28586.000
552.000	28621.000
553.000	29566.000
554.000	30018.000
555.000	30060.000
556.000	31521.000
557.000	32386.000
558.000	33146.000
559.000	34410.000
560.000	35744.000
561.000	38201.000
562.000	40931.000
563.000	44915.000
564.000	49720.000
565.000	55836.000
566.000	64010.000
567.000	73998.000
568.000	86072.000
569.000	99446.000
570.000	114200.000
571.000	130072.000
572.000	144540.000
573.000	158530.000
574.000	169738.000
575.000	177014.000
576.000	181169.000
577.000	179430.000
578.000	173562.000
579.000	164007.000
580.000	150482.000
581.000	137230.000
582.000	120937.000
583.000	105735.000
584.000	91555.000
585.000	78677.000
586.000	67356.000
587.000	59272.000
588.000	52180.000
589.000	47229.000
590.000	44007.000
591.000	41660.000
592.000	40028.000
593.000	39387.000
594.000	39291.000
595.000	39457.000
596.000	40251.000
597.000	40825.000
598.000	42006.000
599.000	43612.000
600.000	45341.000
601.000	47642.000
602.000	50622.000
603.000	55250.000
604.000	61664.000
605.000	70868.000
606.000	85866.000
607.000	108921.000
608.000	144644.000
609.000	198792.000
610.000	278629.000
611.000	394085.000
612.000	558972.000
613.000	783150.000
614.000	1082036.000
615.000	1465898.000
616.000	1937056.000
617.000	2499639.000
618.000	3138436.000
619.000	3837881.000
620.000	4550383.000
621.000	5248243.000
622.000	5877667.000
623.000	6395215.000
624.000	6743502.000
625.000	6911252.000
626.000	6876274.000
627.000	6636687.000
628.000	6206653.000
629.000	5643980.000
630.000	4988255.000
631.000	4279395.000
632.000	3560596.000
633.000	2888249.000
634.000	2276222.000
635.000	1746912.000
636.000	1311592.000
637.000	961208.000
638.000	692960.000
639.000	493872.000
640.000	351551.000
641.000	253006.000
642.000	185380.000
643.000	142017.000
644.000	112856.000
645.000	95968.000
646.000	84919.000
647.000	77451.000
648.000	73451.000
649.000	71338.000
650.000	69710.000
651.000	68964.000
652.000	68447.000
653.000	68426.000
654.000	68203.000
655.000	67974.000
656.000	68816.000
657.000	68811.000
658.000	70358.000
659.000	70981.000
660.000	71778.000
661.000	73032.000
662.000	74398.000
663.000	75810.000
664.000	78344.000
665.000	80686.000
666.000	82602.000
667.000	85408.000
668.000	89767.000
669.000	95118.000
670.000	101519.000
671.000	109796.000
672.000	119584.000
673.000	134323.000
674.000	151987.000
675.000	176674.000
676.000	210444.000
677.000	251684.000
678.000	306254.000
679.000	369777.000
680.000	446903.000
681.000	537794.000
682.000	634141.000
683.000	737641.000
684.000	843095.000
685.000	939389.000
686.000	1027278.000
687.000	1095633.000
688.000	1143737.000
689.000	1158080.000
690.000	1147499.000
691.000	1109228.000
692.000	1047515.000
693.000	960200.000
694.000	861611.000
695.000	756852.000
696.000	649754.000
697.000	544839.000
698.000	448604.000
699.000	367192.000
700.000	293701.000
701.000	235954.000
702.000	188447.000
703.000	152238.000
704.000	125988.000
705.000	107102.000
706.000	93162.000
707.000	83768.000
708.000	78448.000
709.000	74537.000
710.000	72941.000
711.000	71593.000
712.000	72130.000
713.000	72943.000
714.000	74760.000
715.000	77227.000
716.000	79983.000
717.000	82403.000
718.000	85445.000
719.000	88867.000
720.000	92198.000
721.000	94522.000
722.000	98047.000
723.000	101379.000
724.000	104213.000
725.000	106539.000
726.000	108524.000
727.000	110437.000
728.000	110885.000
729.000	111395.000
730.000	110802.000
731.000	109147.000
732.000	107320.000
733.000	104922.000
734.000	102697.000
735.000	99962.000
736.000	96656.000
737.000	92521.000
738.000	90955.000
739.000	88862.000
740.000	86602.000
741.000	85095.000
742.000	83893.000
743.000	82646.000
744.000	82893.000
745.000	82280.000
746.000	82245.000
747.000	82043.000
748.000	82684.000
749.000	83128.000
750.000	83357.000
751.000	83819.000
752.000	83942.000
753.000	84002.000
754.000	83270.000
755.000	83655.000
756.000	83812.000
757.000	83604.000
758.000	84205.000
759.000	83680.000
760.000	84215.000
761.000	84671.000
762.000	85330.000
763.000	85165.000
764.000	86430.000
765.000	87121.000
766.000	87496.000
767.000	88811.000
768.000	90216.000
769.000	91642.000
770.000	93617.000
771.000	95528.000
772.000	97055.000
773.000	99645.000
774.000	102758.000
775.000	106222.000
776.000	110295.000
777.000	114858.000
778.000	119086.000
779.000	124212.000
780.000	128415.000
781.000	134104.000
782.000	139146.000
783.000	143181.000
784.000	148694.000
785.000	152733.000
786.000	156346.000
787.000	160146.000
788.000	162103.000
789.000	165023.000
790.000	166622.000
791.000	167834.000
792.000	169325.000
793.000	169880.000
794.000	170595.000
795.000	170774.000
796.000	172520.000
797.000	172333.000
798.000	173486.000
799.000	172870.000
800.000	174665.000
801.000	174437.000
802.000	176181.000
803.000	178183.000
804.000	181186.000
805.000	185800.000
806.000	190447.000
807.000	196991.000
808.000	206629.000
809.000	216700.000
810.000	229136.000
811.000	243207.000
812.000	261124.000
813.000	279557.000
814.000	293573.000
815.000	309565.000
816.000	323481.000
817.000	334154.000
818.000	342213.000
819.000	347683.000
820.000	346600.000
821.000	341480.000
822.000	332833.000
823.000	317902.000
824.000	303265.000
825.000	284914.000
826.000	265260.000
827.000	246298.000
828.000	226927.000
829.000	210223.000
830.000	194902.000
831.000	183087.000
832.000	172626.000
833.000	165208.000
834.000	159608.000
835.000	156298.000
836.000	154707.000
837.000	154601.000
838.000	153500.000
839.000	155072.000
840.000	155543.000
841.000	156708.000
842.000	157419.000
843.000	158412.000
844.000	157818.000
845.000	157237.000
846.000	155736.000
847.000	154715.000
848.000	152836.000
849.000	150844.000
850.000	150220.000
851.000	147652.000
852.000	145020.000
853.000	143555.000
854.000	142220.000
855.000	141519.000
856.000	140115.000
857.000	139254.000
858.000	139000.000
859.000	139446.000
860.000	139613.000
861.000	138955.000
862.000	139677.000
863.000	138639.000
864.000	139741.000
865.000	139527.000
866.000	141050.000
867.000	140917.000
868.000	140771.000
869.000	141746.000
870.000	142203.000
871.000	141767.000
872.000	142032.000
873.000	141788.000
874.000	141924.000
875.000	141729.000
876.000	141510.000
877.000	141781.000
878.000	142138.000
879.000	141365.000
880.000	142056.000
881.000	142102.000
882.000	142919.000
883.000	142332.000
884.000	142451.000
885.000	143951.000
886.000	144688.000
887.000	145229.000
888.000	146969.000
889.000	147987.000
890.000	149241.000
891.000	150588.000
892.000	153089.000
893.000	155007.000
894.000	156662.000
895.000	158953.000
896.000	161695.000
897.000	164499.000
898.000	167175.000
899.000	169706.000
900.000	173267.000
901.000	175147.000
902.000	178912.000
903.000	180930.000
904.000	184309.000
905.000	187045.000
906.000	189067.000
907.000	191477.000
908.000	193087.000
909.000	196242.000
910.000	197807.000
911.000	199226.000
912.000	201108.000
913.000	203250.000
914.000	203869.000
915.000	205419.000
916.000	207013.000
917.000	208196.000
918.000	209865.000
919.000	211480.000
920.000	213234.000
921.000	214401.000
922.000	216705.000
923.000	218376.000
924.000	219686.000
925.000	221578.000
926.000	224794.000
927.000	226831.000
928.000	230565.000
929.000	234096.000
930.000	238149.000
931.000	242968.000
932.000	247567.000
933.000	252604.000
934.000	259342.000
935.000	266444.000
936.000	275111.000
937.000	282917.000
938.000	291156.000
939.000	298612.000
940.000	305144.000
941.000	310751.000
942.000	314561.000
943.000	316318.000
944.000	317765.000
945.000	314513.000
946.000	311551.000
947.000	304744.000
948.000	297925.000
949.000	289009.000
950.000	278686.000
951.000	269892.000
952.000	259302.000
953.000	251051.000
954.000	243334.000
955.000	235741.000
956.000	228895.000
957.000	224820.000
958.000	220577.000
959.000	216550.000
960.000	215558.000
961.000	215038.000
962.000	213661.000
963.000	214661.000
964.000	215728.000
965.000	217708.000
966.000	219131.000
967.000	220821.000
968.000	222423.000
969.000	224499.000
970.000	224876.000
971.000	225657.000
972.000	225610.000
973.000	224166.000
974.000	222957.000
975.000	220166.000
976.000	217413.000
977.000	214224.000
978.000	210750.000
979.000	206190.000
980.000	202446.000
981.000	198930.000
982.000	194716.000
983.000	191456.000
984.000	187619.000
985.000	186387.000
986.000	183756.000
987.000	180934.000
988.000	178958.000
989.000	178305.000
990.000	176421.000
991.000	174692.000
992.000	173513.000
993.000	172073.000
994.000	170750.000
