Date:	22-Sep-20		Time:	11:17 PM		Version no:	0.00		Project name:	55		Sample name:	222		Section name:	section		Position	0.000000	mm	E0	0.000000	keV	E1	1.000000	keV/channel	sample surface	2.000000	cm	Tube anode:	Mo		Tube voltage:	30	kV	Tube current:	30	mA	gain	15		std. database			resultfile	result		matrix element	11		sample thickness	1.000000		air passage	0.560000	cm	comments	not in position		peaking_time	0.300000	m-sec	trigger_threshold	40.000000	V	mca_bin_width	2.000000	no:	number_mca_channels	2048.000000	no:	gap_time	2048.000000	m-sec	trigger_peaking_time	2048.000000	m-sec	GAINDAC	400		HIGHGAIN	400		TAURC	400		RCTAU	400		RCTAUFRAC	400		livetime	13.457225	seconds	runtime	15.000009	seconds	input_count_rate	48194.706552	cps	output_count_rate	43237.774057	cps	triggers	711323	seconds	events_in_run	632956	seconds	channel	content		1.000	0.000
2.000	0.000
3.000	0.000
4.000	0.000
5.000	0.000
6.000	0.000
7.000	0.000
8.000	0.000
9.000	0.000
10.000	0.000
11.000	0.000
12.000	0.000
13.000	0.000
14.000	0.000
15.000	0.000
16.000	0.000
17.000	0.000
18.000	0.000
19.000	0.000
20.000	0.000
21.000	0.000
22.000	0.000
23.000	0.000
24.000	0.000
25.000	0.000
26.000	0.000
27.000	0.000
28.000	0.000
29.000	0.000
30.000	0.000
31.000	34.000
32.000	35.000
33.000	36.000
34.000	31.000
35.000	31.000
36.000	37.000
37.000	38.000
38.000	26.000
39.000	31.000
40.000	35.000
41.000	33.000
42.000	23.000
43.000	36.000
44.000	35.000
45.000	24.000
46.000	40.000
47.000	49.000
48.000	55.000
49.000	59.000
50.000	94.000
51.000	158.000
52.000	182.000
53.000	292.000
54.000	356.000
55.000	470.000
56.000	642.000
57.000	866.000
58.000	1220.000
59.000	1804.000
60.000	2231.000
61.000	2661.000
62.000	2872.000
63.000	3014.000
64.000	2972.000
65.000	2847.000
66.000	2746.000
67.000	2637.000
68.000	2584.000
69.000	2528.000
70.000	2449.000
71.000	2393.000
72.000	2497.000
73.000	2514.000
74.000	2454.000
75.000	2390.000
76.000	2364.000
77.000	2398.000
78.000	2325.000
79.000	2374.000
80.000	2298.000
81.000	2339.000
82.000	2338.000
83.000	2458.000
84.000	2480.000
85.000	2456.000
86.000	2504.000
87.000	2473.000
88.000	2488.000
89.000	2301.000
90.000	2249.000
91.000	2315.000
92.000	2119.000
93.000	2166.000
94.000	2106.000
95.000	2064.000
96.000	2108.000
97.000	1984.000
98.000	2040.000
99.000	2051.000
100.000	1935.000
101.000	2039.000
102.000	1951.000
103.000	1992.000
104.000	1975.000
105.000	1976.000
106.000	1808.000
107.000	1908.000
108.000	1905.000
109.000	1851.000
110.000	1900.000
111.000	1780.000
112.000	1727.000
113.000	1745.000
114.000	1795.000
115.000	1746.000
116.000	1716.000
117.000	1756.000
118.000	1727.000
119.000	1768.000
120.000	1675.000
121.000	1725.000
122.000	1732.000
123.000	1588.000
124.000	1602.000
125.000	1641.000
126.000	1565.000
127.000	1638.000
128.000	1514.000
129.000	1543.000
130.000	1494.000
131.000	1510.000
132.000	1489.000
133.000	1536.000
134.000	1526.000
135.000	1537.000
136.000	1474.000
137.000	1540.000
138.000	1606.000
139.000	1654.000
140.000	1785.000
141.000	1953.000
142.000	2064.000
143.000	2360.000
144.000	2412.000
145.000	2479.000
146.000	2609.000
147.000	2564.000
148.000	2398.000
149.000	2252.000
150.000	2079.000
151.000	1942.000
152.000	1896.000
153.000	1724.000
154.000	1744.000
155.000	1635.000
156.000	1550.000
157.000	1524.000
158.000	1375.000
159.000	1422.000
160.000	1405.000
161.000	1334.000
162.000	1480.000
163.000	1692.000
164.000	2033.000
165.000	2513.000
166.000	2970.000
167.000	3924.000
168.000	4481.000
169.000	5102.000
170.000	5667.000
171.000	5602.000
172.000	5381.000
173.000	4933.000
174.000	4397.000
175.000	3823.000
176.000	3361.000
177.000	2931.000
178.000	2842.000
179.000	2843.000
180.000	2994.000
181.000	3369.000
182.000	4113.000
183.000	5052.000
184.000	6508.000
185.000	8611.000
186.000	11388.000
187.000	14681.000
188.000	17753.000
189.000	20404.000
190.000	22734.000
191.000	23503.000
192.000	22344.000
193.000	20288.000
194.000	17460.000
195.000	14014.000
196.000	10593.000
197.000	7689.000
198.000	5474.000
199.000	3835.000
200.000	2894.000
201.000	2149.000
202.000	1862.000
203.000	1640.000
204.000	1521.000
205.000	1544.000
206.000	1532.000
207.000	1575.000
208.000	1527.000
209.000	1537.000
210.000	1568.000
211.000	1637.000
212.000	1726.000
213.000	1813.000
214.000	1973.000
215.000	2087.000
216.000	2340.000
217.000	2553.000
218.000	3084.000
219.000	3466.000
220.000	3934.000
221.000	4339.000
222.000	4528.000
223.000	4681.000
224.000	4453.000
225.000	4218.000
226.000	3959.000
227.000	3496.000
228.000	3092.000
229.000	2608.000
230.000	2221.000
231.000	1982.000
232.000	1711.000
233.000	1466.000
234.000	1419.000
235.000	1359.000
236.000	1341.000
237.000	1362.000
238.000	1290.000
239.000	1278.000
240.000	1339.000
241.000	1325.000
242.000	1315.000
243.000	1369.000
244.000	1475.000
245.000	1507.000
246.000	1723.000
247.000	2119.000
248.000	2695.000
249.000	3429.000
250.000	4893.000
251.000	6505.000
252.000	8468.000
253.000	10467.000
254.000	12654.000
255.000	14555.000
256.000	15738.000
257.000	16417.000
258.000	16118.000
259.000	14761.000
260.000	12892.000
261.000	10716.000
262.000	8752.000
263.000	6639.000
264.000	4950.000
265.000	3816.000
266.000	3021.000
267.000	2450.000
268.000	2232.000
269.000	2148.000
270.000	2308.000
271.000	2346.000
272.000	2572.000
273.000	2835.000
274.000	3131.000
275.000	3096.000
276.000	3132.000
277.000	3132.000
278.000	3075.000
279.000	2917.000
280.000	2949.000
281.000	3028.000
282.000	3047.000
283.000	3397.000
284.000	3862.000
285.000	4466.000
286.000	5279.000
287.000	6047.000
288.000	6430.000
289.000	6977.000
290.000	7066.000
291.000	6921.000
292.000	6414.000
293.000	5778.000
294.000	5010.000
295.000	4288.000
296.000	3563.000
297.000	3136.000
298.000	2656.000
299.000	2365.000
300.000	2141.000
301.000	2060.000
302.000	2050.000
303.000	2064.000
304.000	2119.000
305.000	2203.000
306.000	2381.000
307.000	2507.000
308.000	2678.000
309.000	2796.000
310.000	2944.000
311.000	3325.000
312.000	3537.000
313.000	4037.000
314.000	4517.000
315.000	5513.000
316.000	6489.000
317.000	8463.000
318.000	10517.000
319.000	12960.000
320.000	16101.000
321.000	19498.000
322.000	21872.000
323.000	24051.000
324.000	25330.000
325.000	25186.000
326.000	24210.000
327.000	21902.000
328.000	19300.000
329.000	15983.000
330.000	12866.000
331.000	9999.000
332.000	7788.000
333.000	5937.000
334.000	4624.000
335.000	3774.000
336.000	3304.000
337.000	3227.000
338.000	3303.000
339.000	3663.000
340.000	4312.000
341.000	4875.000
342.000	6060.000
343.000	7535.000
344.000	9800.000
345.000	13489.000
346.000	19477.000
347.000	28860.000
348.000	44597.000
349.000	70292.000
350.000	111242.000
351.000	172660.000
352.000	261757.000
353.000	386460.000
354.000	548447.000
355.000	749839.000
356.000	982828.000
357.000	1227100.000
358.000	1472251.000
359.000	1679479.000
360.000	1837079.000
361.000	1909739.000
362.000	1898082.000
363.000	1797318.000
364.000	1630096.000
365.000	1407078.000
366.000	1157267.000
367.000	911494.000
368.000	686010.000
369.000	491184.000
370.000	337670.000
371.000	222163.000
372.000	141516.000
373.000	87628.000
374.000	53586.000
375.000	33550.000
376.000	22461.000
377.000	17100.000
378.000	15745.000
379.000	17048.000
380.000	20266.000
381.000	26587.000
382.000	35197.000
383.000	47544.000
384.000	64467.000
385.000	85875.000
386.000	113222.000
387.000	144009.000
388.000	177790.000
389.000	211414.000
390.000	242162.000
391.000	267244.000
392.000	280989.000
393.000	285130.000
394.000	277043.000
395.000	256908.000
396.000	229370.000
397.000	195506.000
398.000	158791.000
399.000	125170.000
400.000	93711.000
401.000	67775.000
402.000	47579.000
403.000	31189.000
404.000	20003.000
405.000	12366.000
406.000	7833.000
407.000	4746.000
408.000	2916.000
409.000	1913.000
410.000	1393.000
411.000	1135.000
412.000	962.000
413.000	822.000
414.000	792.000
415.000	772.000
416.000	759.000
417.000	735.000
418.000	747.000
419.000	722.000
420.000	813.000
421.000	759.000
422.000	786.000
423.000	851.000
424.000	869.000
425.000	957.000
426.000	1110.000
427.000	1266.000
428.000	1637.000
429.000	2111.000
430.000	2780.000
431.000	3855.000
432.000	5169.000
433.000	6771.000
434.000	8675.000
435.000	11060.000
436.000	13566.000
437.000	16046.000
438.000	18272.000
439.000	19924.000
440.000	21233.000
441.000	21960.000
442.000	21432.000
443.000	20344.000
444.000	18440.000
445.000	16294.000
446.000	13813.000
447.000	11568.000
448.000	9402.000
449.000	7548.000
450.000	5974.000
451.000	4952.000
452.000	4243.000
453.000	3808.000
454.000	3334.000
455.000	3159.000
456.000	3119.000
457.000	2743.000
458.000	2565.000
459.000	2343.000
460.000	2239.000
461.000	1939.000
462.000	1794.000
463.000	1692.000
464.000	1611.000
465.000	1527.000
466.000	1568.000
467.000	1490.000
468.000	1603.000
469.000	1682.000
470.000	1774.000
471.000	1894.000
472.000	2129.000
473.000	2396.000
474.000	2569.000
475.000	2874.000
476.000	3223.000
477.000	3520.000
478.000	4008.000
479.000	4230.000
480.000	4599.000
481.000	4853.000
482.000	5102.000
483.000	5071.000
484.000	4894.000
485.000	4569.000
486.000	4239.000
487.000	3939.000
488.000	3511.000
489.000	2994.000
490.000	2595.000
491.000	2443.000
492.000	2034.000
493.000	1823.000
494.000	1684.000
495.000	1515.000
496.000	1411.000
497.000	1485.000
498.000	1401.000
499.000	1541.000
500.000	1494.000
501.000	1517.000
502.000	1582.000
503.000	1648.000
504.000	1617.000
505.000	1680.000
506.000	1640.000
507.000	1680.000
508.000	1778.000
509.000	1878.000
510.000	1856.000
511.000	1881.000
512.000	2027.000
513.000	2075.000
514.000	2052.000
515.000	2152.000
516.000	2259.000
517.000	2429.000
518.000	2388.000
519.000	2618.000
520.000	2708.000
521.000	2879.000
522.000	3181.000
523.000	3380.000
524.000	3607.000
525.000	3825.000
526.000	4009.000
527.000	4289.000
528.000	4343.000
529.000	4221.000
530.000	4214.000
531.000	4061.000
532.000	3957.000
533.000	3578.000
534.000	3493.000
535.000	3175.000
536.000	2992.000
537.000	2703.000
538.000	2564.000
539.000	2321.000
540.000	2221.000
541.000	2126.000
542.000	2084.000
543.000	2010.000
544.000	1965.000
545.000	1975.000
546.000	1964.000
547.000	2038.000
548.000	2001.000
549.000	2079.000
550.000	2004.000
551.000	2175.000
552.000	2122.000
553.000	2129.000
554.000	2315.000
555.000	2297.000
556.000	2394.000
557.000	2494.000
558.000	2640.000
559.000	2577.000
560.000	2726.000
561.000	2886.000
562.000	3113.000
563.000	3293.000
564.000	3471.000
565.000	3878.000
566.000	4280.000
567.000	4847.000
568.000	5601.000
569.000	6172.000
570.000	7077.000
571.000	7839.000
572.000	8444.000
573.000	9386.000
574.000	9886.000
575.000	10393.000
576.000	10401.000
577.000	10404.000
578.000	9772.000
579.000	9521.000
580.000	8933.000
581.000	8106.000
582.000	7102.000
583.000	6417.000
584.000	5610.000
585.000	5060.000
586.000	4435.000
587.000	4009.000
588.000	3708.000
589.000	3290.000
590.000	3093.000
591.000	2955.000
592.000	2796.000
593.000	2820.000
594.000	2828.000
595.000	2797.000
596.000	3067.000
597.000	2918.000
598.000	3087.000
599.000	3108.000
600.000	3267.000
601.000	3417.000
602.000	3638.000
603.000	3814.000
604.000	4326.000
605.000	4911.000
606.000	6019.000
607.000	7449.000
608.000	9647.000
609.000	12938.000
610.000	18124.000
611.000	25654.000
612.000	36094.000
613.000	50883.000
614.000	69760.000
615.000	94287.000
616.000	124555.000
617.000	160780.000
618.000	201121.000
619.000	246627.000
620.000	291500.000
621.000	335387.000
622.000	375289.000
623.000	409466.000
624.000	431639.000
625.000	441108.000
626.000	440079.000
627.000	424783.000
628.000	397224.000
629.000	361109.000
630.000	319761.000
631.000	273729.000
632.000	227794.000
633.000	185285.000
634.000	146131.000
635.000	112252.000
636.000	84838.000
637.000	62175.000
638.000	45049.000
639.000	32129.000
640.000	23172.000
641.000	16905.000
642.000	12924.000
643.000	9914.000
644.000	8060.000
645.000	6831.000
646.000	6253.000
647.000	5787.000
648.000	5537.000
649.000	5260.000
650.000	5279.000
651.000	5182.000
652.000	5324.000
653.000	5121.000
654.000	5217.000
655.000	5217.000
656.000	5251.000
657.000	5183.000
658.000	5366.000
659.000	5559.000
660.000	5440.000
661.000	5642.000
662.000	5622.000
663.000	5875.000
664.000	5787.000
665.000	5933.000
666.000	6276.000
667.000	6481.000
668.000	6832.000
669.000	6911.000
670.000	7454.000
671.000	7854.000
672.000	8619.000
673.000	9696.000
674.000	10566.000
675.000	12319.000
676.000	14350.000
677.000	17203.000
678.000	20577.000
679.000	24567.000
680.000	29552.000
681.000	35585.000
682.000	41407.000
683.000	48017.000
684.000	54601.000
685.000	60807.000
686.000	66423.000
687.000	70895.000
688.000	74022.000
689.000	74517.000
690.000	74452.000
691.000	71830.000
692.000	67728.000
693.000	62225.000
694.000	55754.000
695.000	48966.000
696.000	42437.000
697.000	35968.000
698.000	29850.000
699.000	24556.000
700.000	19907.000
701.000	16058.000
702.000	12958.000
703.000	10654.000
704.000	8978.000
705.000	7733.000
706.000	6839.000
707.000	6393.000
708.000	6040.000
709.000	5984.000
710.000	5739.000
711.000	5768.000
712.000	5773.000
713.000	6039.000
714.000	6076.000
715.000	6284.000
716.000	6405.000
717.000	6782.000
718.000	7104.000
719.000	7456.000
720.000	7510.000
721.000	7699.000
722.000	8173.000
723.000	8301.000
724.000	8380.000
725.000	8762.000
726.000	8750.000
727.000	8799.000
728.000	8767.000
729.000	8817.000
730.000	8643.000
731.000	8551.000
732.000	8450.000
733.000	8221.000
734.000	7953.000
735.000	7710.000
736.000	7405.000
737.000	7360.000
738.000	7079.000
739.000	7074.000
740.000	6764.000
741.000	6810.000
742.000	6702.000
743.000	6640.000
744.000	6685.000
745.000	6537.000
746.000	6504.000
747.000	6570.000
748.000	6644.000
749.000	6634.000
750.000	6592.000
751.000	6639.000
752.000	6619.000
753.000	6657.000
754.000	6647.000
755.000	6673.000
756.000	6681.000
757.000	6605.000
758.000	6690.000
759.000	6480.000
760.000	6649.000
761.000	6820.000
762.000	6725.000
763.000	6706.000
764.000	6723.000
765.000	6916.000
766.000	7060.000
767.000	7083.000
768.000	7269.000
769.000	7401.000
770.000	7252.000
771.000	7464.000
772.000	7685.000
773.000	7821.000
774.000	8189.000
775.000	8399.000
776.000	8711.000
777.000	9002.000
778.000	9325.000
779.000	9760.000
780.000	10039.000
781.000	10529.000
782.000	11014.000
783.000	11261.000
784.000	11454.000
785.000	11618.000
786.000	12253.000
787.000	12404.000
788.000	12544.000
789.000	13112.000
790.000	12894.000
791.000	13027.000
792.000	13080.000
793.000	13136.000
794.000	13164.000
795.000	13570.000
796.000	13566.000
797.000	13527.000
798.000	13336.000
799.000	13632.000
800.000	13389.000
801.000	13660.000
802.000	13752.000
803.000	13900.000
804.000	14189.000
805.000	14528.000
806.000	14752.000
807.000	15450.000
808.000	16279.000
809.000	17130.000
810.000	17997.000
811.000	19216.000
812.000	20848.000
813.000	22491.000
814.000	23322.000
815.000	24891.000
816.000	25506.000
817.000	26893.000
818.000	27676.000
819.000	27616.000
820.000	28131.000
821.000	27695.000
822.000	26614.000
823.000	25520.000
824.000	24439.000
825.000	22798.000
826.000	21404.000
827.000	20016.000
828.000	18233.000
829.000	16696.000
830.000	15781.000
831.000	14649.000
832.000	13837.000
833.000	13109.000
834.000	12648.000
835.000	12220.000
836.000	12145.000
837.000	11856.000
838.000	12068.000
839.000	11956.000
840.000	12201.000
841.000	12231.000
842.000	12247.000
843.000	11917.000
844.000	12353.000
845.000	12233.000
846.000	12096.000
847.000	12125.000
848.000	11842.000
849.000	11770.000
850.000	11637.000
851.000	11551.000
852.000	11519.000
853.000	11183.000
854.000	11195.000
855.000	11151.000
856.000	10959.000
857.000	11014.000
858.000	11002.000
859.000	10839.000
860.000	10883.000
861.000	11011.000
862.000	11177.000
863.000	10916.000
864.000	11110.000
865.000	11156.000
866.000	11196.000
867.000	11157.000
868.000	11365.000
869.000	10970.000
870.000	11099.000
871.000	11162.000
872.000	11137.000
873.000	11013.000
874.000	10969.000
875.000	11149.000
876.000	11114.000
877.000	11130.000
878.000	11168.000
879.000	11150.000
880.000	10929.000
881.000	11032.000
882.000	11066.000
883.000	10996.000
884.000	11129.000
885.000	11189.000
886.000	11201.000
887.000	11303.000
888.000	11528.000
889.000	11477.000
890.000	11662.000
891.000	11607.000
892.000	11729.000
893.000	12039.000
894.000	12291.000
895.000	12489.000
896.000	12568.000
897.000	12831.000
898.000	12919.000
899.000	13015.000
900.000	13327.000
901.000	13512.000
902.000	13796.000
903.000	14128.000
904.000	14259.000
905.000	14559.000
906.000	14568.000
907.000	15109.000
908.000	15155.000
909.000	15242.000
910.000	15289.000
911.000	15592.000
912.000	15497.000
913.000	15619.000
914.000	16067.000
915.000	16244.000
916.000	16231.000
917.000	16224.000
918.000	16493.000
919.000	16624.000
920.000	16551.000
921.000	16806.000
922.000	17077.000
923.000	17111.000
924.000	17107.000
925.000	17352.000
926.000	17779.000
927.000	17759.000
928.000	18147.000
929.000	18461.000
930.000	18808.000
931.000	18913.000
932.000	19281.000
933.000	19692.000
934.000	20233.000
935.000	21029.000
936.000	21580.000
937.000	21999.000
938.000	22995.000
939.000	23405.000
940.000	24124.000
941.000	24508.000
942.000	24569.000
943.000	25092.000
944.000	25172.000
945.000	24644.000
946.000	24415.000
947.000	24318.000
948.000	23616.000
949.000	22497.000
950.000	21878.000
951.000	21294.000
952.000	20431.000
953.000	19729.000
954.000	19255.000
955.000	18739.000
956.000	18005.000
957.000	17663.000
958.000	17115.000
959.000	17065.000
960.000	17054.000
961.000	16987.000
962.000	16665.000
963.000	17084.000
964.000	17269.000
965.000	17142.000
966.000	17276.000
967.000	17583.000
968.000	17487.000
969.000	17421.000
970.000	17846.000
971.000	17619.000
972.000	17753.000
973.000	17725.000
974.000	17614.000
975.000	17184.000
976.000	16918.000
977.000	16900.000
978.000	16521.000
979.000	16201.000
980.000	15822.000
981.000	15944.000
982.000	15452.000
983.000	15013.000
984.000	14901.000
985.000	14770.000
986.000	14530.000
987.000	14290.000
988.000	14122.000
989.000	13805.000
990.000	13828.000
991.000	13717.000
992.000	13580.000
993.000	13391.000
994.000	13190.000
995.000	13238.000
996.000	13044.000
997.000	13148.000
998.000	12995.000
999.000	13117.000
1000.000	13020.000
1001.000	12936.000
1002.000	12705.000
1003.000	12848.000
1004.000	12900.000
1005.000	12846.000
1006.000	12904.000
1007.000	12769.000
1008.000	12661.000
1009.000	12686.000
1010.000	12746.000
1011.000	12928.000
1012.000	12856.000
1013.000	13019.000
1014.000	13150.000
1015.000	12878.000
1016.000	12892.000
1017.000	13275.000
1018.000	13145.000
1019.000	13061.000
1020.000	13091.000
1021.000	13347.000
1022.000	13201.000
1023.000	13469.000
1024.000	13469.000
1025.000	13623.000
1026.000	13743.000
1027.000	13580.000
1028.000	13663.000
1029.000	13757.000
1030.000	13516.000
1031.000	13839.000
1032.000	13863.000
1033.000	13762.000
1034.000	13809.000
1035.000	13854.000
1036.000	13829.000
1037.000	13857.000
1038.000	14043.000
1039.000	13806.000
1040.000	13980.000
1041.000	14021.000
1042.000	14046.000
1043.000	14248.000
1044.000	14159.000
1045.000	14271.000
1046.000	14170.000
