Date:	18-Sep-20		Time:	12:29 AM		Version no:	0.00		Project name:	55		Sample name:	222		Section name:	section		Position	0.000000	mm	E0	0.000000	keV	E1	1.000000	keV/channel	sample surface	2.000000	cm	Tube anode:	Mo		Tube voltage:	30	kV	Tube current:	30	mA	gain	15		std. database			resultfile	result		matrix element	11		sample thickness	1.000000		air passage	0.560000	cm	comments	not in position		peaking_time	0.300000	m-sec	trigger_threshold	40.000000	V	mca_bin_width	2.000000	no:	number_mca_channels	2048.000000	no:	gap_time	2048.000000	m-sec	trigger_peaking_time	2048.000000	m-sec	GAINDAC	400		HIGHGAIN	400		TAURC	400		RCTAU	400		RCTAUFRAC	400		livetime	13.376993	seconds	runtime	15.000272	seconds	input_count_rate	47297.250320	cps	output_count_rate	42178.900417	cps	triggers	697290	seconds	events_in_run	616219	seconds	channel	content		1.000	0.000
2.000	0.000
3.000	0.000
4.000	0.000
5.000	0.000
6.000	0.000
7.000	0.000
8.000	0.000
9.000	0.000
10.000	0.000
11.000	0.000
12.000	0.000
13.000	0.000
14.000	0.000
15.000	0.000
16.000	0.000
17.000	0.000
18.000	0.000
19.000	0.000
20.000	0.000
21.000	0.000
22.000	0.000
23.000	0.000
24.000	0.000
25.000	0.000
26.000	0.000
27.000	0.000
28.000	0.000
29.000	0.000
30.000	0.000
31.000	43.000
32.000	40.000
33.000	34.000
34.000	36.000
35.000	36.000
36.000	32.000
37.000	36.000
38.000	32.000
39.000	34.000
40.000	39.000
41.000	39.000
42.000	30.000
43.000	35.000
44.000	46.000
45.000	49.000
46.000	43.000
47.000	67.000
48.000	60.000
49.000	99.000
50.000	132.000
51.000	221.000
52.000	257.000
53.000	428.000
54.000	567.000
55.000	722.000
56.000	966.000
57.000	1411.000
58.000	1959.000
59.000	2654.000
60.000	3544.000
61.000	4030.000
62.000	4462.000
63.000	4746.000
64.000	4601.000
65.000	4531.000
66.000	4302.000
67.000	4152.000
68.000	4109.000
69.000	3968.000
70.000	3859.000
71.000	3816.000
72.000	3823.000
73.000	3792.000
74.000	3780.000
75.000	3725.000
76.000	3717.000
77.000	3719.000
78.000	3630.000
79.000	3651.000
80.000	3687.000
81.000	3624.000
82.000	3619.000
83.000	3700.000
84.000	3679.000
85.000	3783.000
86.000	3734.000
87.000	3646.000
88.000	3538.000
89.000	3594.000
90.000	3409.000
91.000	3424.000
92.000	3331.000
93.000	3349.000
94.000	3347.000
95.000	3300.000
96.000	3302.000
97.000	3232.000
98.000	3179.000
99.000	3201.000
100.000	3181.000
101.000	3125.000
102.000	2908.000
103.000	3026.000
104.000	3061.000
105.000	2898.000
106.000	2992.000
107.000	2958.000
108.000	2882.000
109.000	2862.000
110.000	2805.000
111.000	2788.000
112.000	2727.000
113.000	2730.000
114.000	2694.000
115.000	2721.000
116.000	2597.000
117.000	2662.000
118.000	2586.000
119.000	2562.000
120.000	2537.000
121.000	2542.000
122.000	2494.000
123.000	2406.000
124.000	2378.000
125.000	2464.000
126.000	2352.000
127.000	2249.000
128.000	2276.000
129.000	2265.000
130.000	2209.000
131.000	2151.000
132.000	2202.000
133.000	2198.000
134.000	2177.000
135.000	2127.000
136.000	2078.000
137.000	2194.000
138.000	2261.000
139.000	2607.000
140.000	2821.000
141.000	3093.000
142.000	3639.000
143.000	4073.000
144.000	4554.000
145.000	4840.000
146.000	4927.000
147.000	4883.000
148.000	4638.000
149.000	4542.000
150.000	4244.000
151.000	4132.000
152.000	4002.000
153.000	3953.000
154.000	3844.000
155.000	3663.000
156.000	3437.000
157.000	3132.000
158.000	2840.000
159.000	2548.000
160.000	2463.000
161.000	2520.000
162.000	3013.000
163.000	4074.000
164.000	5554.000
165.000	7814.000
166.000	10937.000
167.000	14397.000
168.000	17766.000
169.000	20830.000
170.000	22445.000
171.000	22821.000
172.000	21450.000
173.000	19140.000
174.000	15735.000
175.000	12648.000
176.000	9876.000
177.000	7411.000
178.000	5782.000
179.000	4728.000
180.000	4117.000
181.000	3888.000
182.000	3711.000
183.000	3767.000
184.000	4059.000
185.000	4574.000
186.000	5326.000
187.000	6290.000
188.000	7143.000
189.000	8025.000
190.000	8797.000
191.000	9050.000
192.000	8684.000
193.000	8032.000
194.000	6910.000
195.000	5933.000
196.000	4734.000
197.000	3937.000
198.000	3154.000
199.000	2552.000
200.000	2278.000
201.000	2021.000
202.000	1868.000
203.000	1736.000
204.000	1724.000
205.000	1688.000
206.000	1651.000
207.000	1626.000
208.000	1624.000
209.000	1583.000
210.000	1595.000
211.000	1658.000
212.000	1664.000
213.000	1665.000
214.000	1725.000
215.000	1704.000
216.000	1807.000
217.000	1946.000
218.000	2060.000
219.000	2275.000
220.000	2405.000
221.000	2529.000
222.000	2536.000
223.000	2704.000
224.000	2604.000
225.000	2532.000
226.000	2587.000
227.000	2360.000
228.000	2163.000
229.000	1926.000
230.000	1808.000
231.000	1699.000
232.000	1551.000
233.000	1470.000
234.000	1371.000
235.000	1393.000
236.000	1360.000
237.000	1377.000
238.000	1406.000
239.000	1260.000
240.000	1306.000
241.000	1335.000
242.000	1350.000
243.000	1338.000
244.000	1470.000
245.000	1530.000
246.000	1675.000
247.000	1902.000
248.000	2385.000
249.000	2906.000
250.000	3842.000
251.000	5202.000
252.000	6515.000
253.000	8109.000
254.000	9738.000
255.000	11037.000
256.000	12069.000
257.000	12512.000
258.000	12071.000
259.000	11415.000
260.000	9968.000
261.000	8373.000
262.000	6798.000
263.000	5325.000
264.000	4348.000
265.000	3534.000
266.000	2992.000
267.000	2661.000
268.000	2596.000
269.000	2675.000
270.000	2834.000
271.000	2903.000
272.000	3082.000
273.000	3108.000
274.000	3138.000
275.000	3187.000
276.000	3060.000
277.000	2941.000
278.000	2794.000
279.000	2647.000
280.000	2800.000
281.000	3034.000
282.000	3550.000
283.000	4114.000
284.000	4979.000
285.000	5729.000
286.000	7051.000
287.000	7933.000
288.000	8889.000
289.000	9359.000
290.000	9699.000
291.000	9360.000
292.000	8564.000
293.000	7558.000
294.000	6368.000
295.000	5400.000
296.000	4240.000
297.000	3455.000
298.000	2620.000
299.000	2196.000
300.000	1937.000
301.000	1772.000
302.000	1772.000
303.000	1663.000
304.000	1825.000
305.000	1806.000
306.000	2105.000
307.000	2365.000
308.000	2643.000
309.000	2969.000
310.000	3602.000
311.000	4480.000
312.000	5770.000
313.000	8031.000
314.000	11188.000
315.000	16489.000
316.000	23789.000
317.000	33744.000
318.000	46711.000
319.000	61865.000
320.000	78814.000
321.000	96614.000
322.000	113077.000
323.000	126465.000
324.000	132430.000
325.000	133135.000
326.000	127189.000
327.000	115266.000
328.000	99628.000
329.000	81531.000
330.000	63953.000
331.000	47843.000
332.000	34314.000
333.000	23571.000
334.000	15696.000
335.000	10473.000
336.000	6904.000
337.000	5111.000
338.000	4028.000
339.000	3559.000
340.000	3868.000
341.000	4529.000
342.000	5627.000
343.000	7125.000
344.000	9224.000
345.000	12223.000
346.000	15993.000
347.000	21582.000
348.000	28950.000
349.000	39307.000
350.000	54312.000
351.000	75360.000
352.000	104459.000
353.000	144548.000
354.000	196604.000
355.000	259997.000
356.000	333877.000
357.000	412311.000
358.000	489632.000
359.000	558137.000
360.000	606043.000
361.000	628904.000
362.000	628433.000
363.000	591261.000
364.000	535756.000
365.000	462318.000
366.000	380078.000
367.000	299246.000
368.000	225588.000
369.000	161582.000
370.000	110913.000
371.000	73603.000
372.000	47031.000
373.000	29229.000
374.000	18029.000
375.000	11753.000
376.000	8227.000
377.000	6376.000
378.000	5909.000
379.000	6323.000
380.000	7333.000
381.000	9255.000
382.000	12179.000
383.000	15972.000
384.000	21804.000
385.000	28795.000
386.000	37701.000
387.000	47564.000
388.000	58799.000
389.000	69289.000
390.000	79718.000
391.000	87245.000
392.000	92867.000
393.000	94212.000
394.000	91083.000
395.000	84659.000
396.000	75209.000
397.000	64686.000
398.000	52881.000
399.000	42001.000
400.000	31621.000
401.000	23163.000
402.000	16392.000
403.000	11481.000
404.000	7834.000
405.000	5433.000
406.000	3691.000
407.000	2741.000
408.000	2137.000
409.000	1778.000
410.000	1560.000
411.000	1403.000
412.000	1319.000
413.000	1366.000
414.000	1312.000
415.000	1327.000
416.000	1321.000
417.000	1367.000
418.000	1328.000
419.000	1465.000
420.000	1492.000
421.000	1552.000
422.000	1711.000
423.000	1840.000
424.000	2021.000
425.000	2612.000
426.000	3291.000
427.000	4438.000
428.000	6172.000
429.000	8821.000
430.000	12740.000
431.000	18366.000
432.000	25658.000
433.000	34993.000
434.000	46749.000
435.000	59690.000
436.000	73933.000
437.000	88351.000
438.000	101375.000
439.000	111861.000
440.000	119324.000
441.000	121713.000
442.000	119412.000
443.000	113376.000
444.000	102244.000
445.000	90607.000
446.000	76011.000
447.000	62525.000
448.000	49693.000
449.000	39055.000
450.000	30367.000
451.000	23899.000
452.000	18871.000
453.000	15697.000
454.000	13620.000
455.000	12199.000
456.000	10918.000
457.000	9883.000
458.000	8923.000
459.000	7974.000
460.000	7003.000
461.000	6417.000
462.000	5593.000
463.000	5035.000
464.000	4713.000
465.000	4457.000
466.000	4751.000
467.000	5038.000
468.000	5391.000
469.000	5952.000
470.000	6812.000
471.000	7589.000
472.000	8596.000
473.000	9849.000
474.000	11508.000
475.000	13176.000
476.000	14852.000
477.000	16834.000
478.000	18990.000
479.000	20616.000
480.000	22518.000
481.000	23549.000
482.000	24154.000
483.000	23642.000
484.000	22976.000
485.000	21699.000
486.000	19708.000
487.000	17265.000
488.000	15147.000
489.000	12666.000
490.000	10626.000
491.000	8926.000
492.000	7531.000
493.000	6280.000
494.000	5508.000
495.000	4714.000
496.000	4287.000
497.000	4070.000
498.000	3915.000
499.000	3805.000
500.000	3863.000
501.000	3934.000
502.000	3928.000
503.000	4168.000
504.000	4225.000
505.000	4420.000
506.000	4619.000
507.000	4799.000
508.000	5018.000
509.000	5228.000
510.000	5329.000
511.000	5592.000
512.000	5817.000
513.000	5977.000
514.000	6201.000
515.000	6324.000
516.000	6521.000
517.000	6534.000
518.000	6916.000
519.000	7178.000
520.000	7273.000
521.000	7552.000
522.000	7967.000
523.000	8276.000
524.000	8602.000
525.000	9255.000
526.000	9757.000
527.000	9949.000
528.000	10119.000
529.000	9969.000
530.000	9989.000
531.000	9627.000
532.000	9233.000
533.000	8811.000
534.000	8105.000
535.000	7538.000
536.000	6904.000
537.000	6526.000
538.000	6245.000
539.000	5653.000
540.000	5482.000
541.000	5301.000
542.000	5220.000
543.000	5185.000
544.000	5116.000
545.000	5034.000
546.000	4899.000
547.000	4912.000
548.000	5012.000
549.000	4955.000
550.000	5050.000
551.000	5099.000
552.000	5018.000
553.000	5159.000
554.000	5212.000
555.000	5262.000
556.000	5471.000
557.000	5462.000
558.000	5715.000
559.000	6001.000
560.000	6394.000
561.000	7028.000
562.000	7847.000
563.000	9323.000
564.000	10928.000
565.000	13356.000
566.000	16170.000
567.000	20117.000
568.000	24498.000
569.000	30191.000
570.000	36078.000
571.000	41769.000
572.000	48139.000
573.000	53550.000
574.000	57515.000
575.000	60195.000
576.000	61673.000
577.000	61381.000
578.000	58793.000
579.000	54771.000
580.000	50315.000
581.000	44486.000
582.000	38242.000
583.000	32374.000
584.000	27340.000
585.000	22458.000
586.000	18088.000
587.000	15059.000
588.000	12730.000
589.000	10809.000
590.000	9767.000
591.000	8849.000
592.000	8431.000
593.000	8086.000
594.000	8119.000
595.000	8287.000
596.000	8126.000
597.000	8675.000
598.000	8837.000
599.000	9320.000
600.000	9534.000
601.000	10003.000
602.000	11014.000
603.000	12115.000
604.000	13739.000
605.000	16142.000
606.000	19958.000
607.000	25904.000
608.000	35397.000
609.000	49796.000
610.000	70264.000
611.000	101084.000
612.000	143980.000
613.000	202929.000
614.000	281874.000
615.000	382107.000
616.000	507263.000
617.000	655029.000
618.000	824004.000
619.000	1007051.000
620.000	1197433.000
621.000	1377674.000
622.000	1543753.000
623.000	1680276.000
624.000	1773300.000
625.000	1811374.000
626.000	1805303.000
627.000	1740923.000
628.000	1628915.000
629.000	1480782.000
630.000	1309999.000
631.000	1120143.000
632.000	932076.000
633.000	754368.000
634.000	594704.000
635.000	455113.000
636.000	338631.000
637.000	247214.000
638.000	176738.000
639.000	124177.000
640.000	86038.000
641.000	59570.000
642.000	42222.000
643.000	30172.000
644.000	22949.000
645.000	18385.000
646.000	15530.000
647.000	13519.000
648.000	12317.000
649.000	11971.000
650.000	11425.000
651.000	11296.000
652.000	11120.000
653.000	11152.000
654.000	11247.000
655.000	11156.000
656.000	11355.000
657.000	11335.000
658.000	11575.000
659.000	11776.000
660.000	11927.000
661.000	12112.000
662.000	12327.000
663.000	12966.000
664.000	13428.000
665.000	13799.000
666.000	14473.000
667.000	14960.000
668.000	15995.000
669.000	17155.000
670.000	18599.000
671.000	20384.000
672.000	23206.000
673.000	26787.000
674.000	31257.000
675.000	37503.000
676.000	46130.000
677.000	58057.000
678.000	71855.000
679.000	88727.000
680.000	109178.000
681.000	131827.000
682.000	157730.000
683.000	185521.000
684.000	213051.000
685.000	239017.000
686.000	260894.000
687.000	279589.000
688.000	291299.000
689.000	296151.000
690.000	292924.000
691.000	283523.000
692.000	266992.000
693.000	243636.000
694.000	217722.000
695.000	189921.000
696.000	162786.000
697.000	134529.000
698.000	109163.000
699.000	87272.000
700.000	69129.000
701.000	53606.000
702.000	40888.000
703.000	31408.000
704.000	24622.000
705.000	20018.000
706.000	16100.000
707.000	13740.000
708.000	12181.000
709.000	11206.000
710.000	10675.000
711.000	10174.000
712.000	10071.000
713.000	9880.000
714.000	10103.000
715.000	10172.000
716.000	10332.000
717.000	10786.000
718.000	10815.000
719.000	11368.000
720.000	11693.000
721.000	12004.000
722.000	12442.000
723.000	13003.000
724.000	13289.000
725.000	13596.000
726.000	13878.000
727.000	14162.000
728.000	14406.000
729.000	14618.000
730.000	14651.000
731.000	14715.000
732.000	14479.000
733.000	14040.000
734.000	13750.000
735.000	13172.000
736.000	13050.000
737.000	12725.000
738.000	12156.000
739.000	12034.000
740.000	11724.000
741.000	11631.000
742.000	11550.000
743.000	11190.000
744.000	11301.000
745.000	11246.000
746.000	11072.000
747.000	11202.000
748.000	11044.000
749.000	11016.000
750.000	11216.000
751.000	11468.000
752.000	11421.000
753.000	11567.000
754.000	11563.000
755.000	11660.000
756.000	11659.000
757.000	11878.000
758.000	11835.000
759.000	12199.000
760.000	12246.000
761.000	12189.000
762.000	12476.000
763.000	12349.000
764.000	12606.000
765.000	12866.000
766.000	12985.000
767.000	13220.000
768.000	13311.000
769.000	13183.000
770.000	13603.000
771.000	14020.000
772.000	14122.000
773.000	14503.000
774.000	14709.000
775.000	15048.000
776.000	15822.000
777.000	15898.000
778.000	16364.000
779.000	16911.000
780.000	17668.000
781.000	18104.000
782.000	18678.000
783.000	19125.000
784.000	20009.000
785.000	20648.000
786.000	20929.000
787.000	21582.000
788.000	22060.000
789.000	22482.000
790.000	22719.000
791.000	22632.000
792.000	23556.000
793.000	23419.000
794.000	23660.000
795.000	23929.000
796.000	23777.000
797.000	24272.000
798.000	24211.000
799.000	24292.000
800.000	24621.000
801.000	24595.000
802.000	24665.000
803.000	24893.000
804.000	25208.000
805.000	25517.000
806.000	26435.000
807.000	27475.000
808.000	28671.000
809.000	29971.000
810.000	31856.000
811.000	33300.000
812.000	35412.000
813.000	37121.000
814.000	40015.000
815.000	41717.000
816.000	43479.000
817.000	45006.000
818.000	45746.000
819.000	46600.000
820.000	46157.000
821.000	45101.000
822.000	43990.000
823.000	42507.000
824.000	40299.000
825.000	37936.000
826.000	35232.000
827.000	32981.000
828.000	30655.000
829.000	28321.000
830.000	26607.000
831.000	25364.000
832.000	24477.000
833.000	23993.000
834.000	23656.000
835.000	23426.000
836.000	24278.000
837.000	24287.000
838.000	25052.000
839.000	25431.000
840.000	26100.000
841.000	26450.000
842.000	26788.000
843.000	26631.000
844.000	26620.000
845.000	26383.000
846.000	25799.000
847.000	24818.000
848.000	24510.000
849.000	23603.000
850.000	23078.000
851.000	22068.000
852.000	21321.000
853.000	20706.000
854.000	20617.000
855.000	20021.000
856.000	19468.000
857.000	19324.000
858.000	18862.000
859.000	18653.000
860.000	18688.000
861.000	18735.000
862.000	18587.000
863.000	18604.000
864.000	18793.000
865.000	18945.000
866.000	19055.000
867.000	19178.000
868.000	19325.000
869.000	18996.000
870.000	19061.000
871.000	19282.000
872.000	19542.000
873.000	19408.000
874.000	19729.000
875.000	19431.000
876.000	19613.000
877.000	19776.000
878.000	19732.000
879.000	19988.000
880.000	19980.000
881.000	20237.000
882.000	20244.000
883.000	20360.000
884.000	20261.000
885.000	20656.000
886.000	21000.000
887.000	20879.000
888.000	21282.000
889.000	21542.000
890.000	21931.000
891.000	21973.000
892.000	22428.000
893.000	22730.000
894.000	23195.000
895.000	23839.000
896.000	24042.000
897.000	24673.000
898.000	25139.000
899.000	25696.000
900.000	25983.000
901.000	26579.000
902.000	27213.000
903.000	27066.000
904.000	27893.000
905.000	28106.000
906.000	28139.000
907.000	28243.000
908.000	28187.000
909.000	28484.000
910.000	28793.000
911.000	28890.000
912.000	29105.000
913.000	29285.000
914.000	29013.000
915.000	29012.000
916.000	29232.000
917.000	29547.000
918.000	29337.000
919.000	29573.000
920.000	30220.000
921.000	30216.000
922.000	30338.000
923.000	30254.000
924.000	30580.000
925.000	31284.000
926.000	31377.000
927.000	31459.000
928.000	32152.000
929.000	32392.000
930.000	32890.000
931.000	33725.000
932.000	34173.000
933.000	35192.000
934.000	35889.000
935.000	37101.000
936.000	37847.000
937.000	38808.000
938.000	40005.000
939.000	40713.000
940.000	41655.000
941.000	42260.000
942.000	42303.000
943.000	42475.000
944.000	42529.000
945.000	41904.000
946.000	41710.000
947.000	41080.000
948.000	39193.000
949.000	38585.000
950.000	36962.000
951.000	35907.000
952.000	34734.000
953.000	33339.000
954.000	32715.000
955.000	31445.000
956.000	30682.000
957.000	29804.000
958.000	29331.000
959.000	28881.000
960.000	28621.000
961.000	28500.000
962.000	28458.000
963.000	28519.000
964.000	28966.000
965.000	28969.000
966.000	29190.000
967.000	29774.000
968.000	29407.000
969.000	29792.000
970.000	30255.000
971.000	30076.000
972.000	30188.000
973.000	29578.000
974.000	29718.000
975.000	29160.000
976.000	28816.000
977.000	28343.000
978.000	27989.000
979.000	27294.000
980.000	26688.000
981.000	26288.000
982.000	25796.000
983.000	25250.000
984.000	24646.000
985.000	24272.000
986.000	24359.000
987.000	24061.000
988.000	23617.000
989.000	23761.000
990.000	23388.000
991.000	23452.000
992.000	23021.000
993.000	22840.000
994.000	22825.000
995.000	22852.000
996.000	22766.000
997.000	22631.000
998.000	22538.000
999.000	22585.000
1000.000	22531.000
1001.000	22630.000
1002.000	22451.000
1003.000	22580.000
1004.000	22231.000
1005.000	22490.000
1006.000	22273.000
1007.000	22306.000
1008.000	22099.000
1009.000	22159.000
1010.000	22501.000
1011.000	22109.000
1012.000	22361.000
1013.000	22516.000
1014.000	22620.000
1015.000	22381.000
1016.000	22437.000
1017.000	22720.000
1018.000	22360.000
1019.000	22966.000
1020.000	22941.000
1021.000	22940.000
1022.000	23134.000
1023.000	23433.000
1024.000	23534.000
1025.000	23311.000
1026.000	23552.000
1027.000	23550.000
1028.000	23509.000
1029.000	23577.000
1030.000	23658.000
1031.000	23768.000
1032.000	23718.000
1033.000	23655.000
1034.000	23820.000
1035.000	23730.000
