Date:	22-Sep-20		Time:	11:12 PM		Version no:	0.00		Project name:	55		Sample name:	222		Section name:	section		Position	111.540018	mm	E0	0.000000	keV	E1	1.000000	keV/channel	sample surface	6.679741	cm	Tube anode:	Mo		Tube voltage:	30	kV	Tube current:	30	mA	gain	15		std. database			resultfile	result		matrix element	11		sample thickness	1.000000		air passage	0.560000	cm	comments	in position		peaking_time	0.300000	m-sec	trigger_threshold	40.000000	V	mca_bin_width	2.000000	no:	number_mca_channels	2048.000000	no:	gap_time	2048.000000	m-sec	trigger_peaking_time	2048.000000	m-sec	GAINDAC	400		HIGHGAIN	400		TAURC	400		RCTAU	400		RCTAUFRAC	400		livetime	13.489300	seconds	runtime	15.000125	seconds	input_count_rate	49615.916299	cps	output_count_rate	44618.560025	cps	triggers	732389	seconds	events_in_run	654487	seconds	channel	content		1.000	0.000
2.000	0.000
3.000	0.000
4.000	0.000
5.000	0.000
6.000	0.000
7.000	0.000
8.000	0.000
9.000	0.000
10.000	0.000
11.000	0.000
12.000	0.000
13.000	0.000
14.000	0.000
15.000	0.000
16.000	0.000
17.000	0.000
18.000	0.000
19.000	0.000
20.000	0.000
21.000	0.000
22.000	0.000
23.000	0.000
24.000	0.000
25.000	0.000
26.000	0.000
27.000	0.000
28.000	0.000
29.000	0.000
30.000	0.000
31.000	0.000
32.000	0.000
33.000	0.000
34.000	0.000
35.000	0.000
36.000	2.000
37.000	0.000
38.000	0.000
39.000	2.000
40.000	0.000
41.000	0.000
42.000	0.000
43.000	0.000
44.000	0.000
45.000	0.000
46.000	0.000
47.000	1.000
48.000	1.000
49.000	1.000
50.000	2.000
51.000	3.000
52.000	1.000
53.000	4.000
54.000	1.000
55.000	7.000
56.000	8.000
57.000	6.000
58.000	11.000
59.000	20.000
60.000	21.000
61.000	33.000
62.000	25.000
63.000	40.000
64.000	31.000
65.000	37.000
66.000	28.000
67.000	32.000
68.000	23.000
69.000	19.000
70.000	25.000
71.000	27.000
72.000	32.000
73.000	29.000
74.000	22.000
75.000	24.000
76.000	22.000
77.000	24.000
78.000	27.000
79.000	25.000
80.000	20.000
81.000	28.000
82.000	27.000
83.000	32.000
84.000	27.000
85.000	18.000
86.000	30.000
87.000	21.000
88.000	25.000
89.000	27.000
90.000	24.000
91.000	33.000
92.000	24.000
93.000	22.000
94.000	22.000
95.000	19.000
96.000	29.000
97.000	20.000
98.000	18.000
99.000	25.000
100.000	13.000
101.000	20.000
102.000	27.000
103.000	22.000
104.000	24.000
105.000	21.000
106.000	17.000
107.000	15.000
108.000	23.000
109.000	22.000
110.000	21.000
111.000	14.000
112.000	13.000
113.000	18.000
114.000	22.000
115.000	20.000
116.000	18.000
117.000	14.000
118.000	16.000
119.000	23.000
120.000	16.000
121.000	14.000
122.000	25.000
123.000	15.000
124.000	17.000
125.000	11.000
126.000	18.000
127.000	13.000
128.000	21.000
129.000	17.000
130.000	13.000
131.000	12.000
132.000	16.000
133.000	12.000
134.000	9.000
135.000	16.000
136.000	8.000
137.000	20.000
138.000	25.000
139.000	12.000
140.000	16.000
141.000	21.000
142.000	19.000
143.000	15.000
144.000	26.000
145.000	33.000
146.000	32.000
147.000	27.000
148.000	24.000
149.000	28.000
150.000	28.000
151.000	20.000
152.000	17.000
153.000	20.000
154.000	26.000
155.000	17.000
156.000	13.000
157.000	19.000
158.000	15.000
159.000	16.000
160.000	18.000
161.000	13.000
162.000	17.000
163.000	17.000
164.000	21.000
165.000	20.000
166.000	36.000
167.000	42.000
168.000	47.000
169.000	63.000
170.000	68.000
171.000	44.000
172.000	59.000
173.000	65.000
174.000	33.000
175.000	36.000
176.000	27.000
177.000	31.000
178.000	26.000
179.000	30.000
180.000	28.000
181.000	36.000
182.000	63.000
183.000	59.000
184.000	77.000
185.000	100.000
186.000	123.000
187.000	153.000
188.000	195.000
189.000	216.000
190.000	252.000
191.000	281.000
192.000	252.000
193.000	250.000
194.000	217.000
195.000	170.000
196.000	126.000
197.000	81.000
198.000	66.000
199.000	39.000
200.000	51.000
201.000	28.000
202.000	15.000
203.000	20.000
204.000	14.000
205.000	19.000
206.000	10.000
207.000	14.000
208.000	17.000
209.000	21.000
210.000	12.000
211.000	16.000
212.000	16.000
213.000	21.000
214.000	17.000
215.000	29.000
216.000	27.000
217.000	39.000
218.000	39.000
219.000	29.000
220.000	49.000
221.000	35.000
222.000	44.000
223.000	55.000
224.000	52.000
225.000	35.000
226.000	45.000
227.000	36.000
228.000	29.000
229.000	33.000
230.000	22.000
231.000	15.000
232.000	23.000
233.000	15.000
234.000	16.000
235.000	14.000
236.000	14.000
237.000	25.000
238.000	17.000
239.000	11.000
240.000	10.000
241.000	16.000
242.000	14.000
243.000	12.000
244.000	11.000
245.000	23.000
246.000	18.000
247.000	26.000
248.000	35.000
249.000	39.000
250.000	41.000
251.000	66.000
252.000	67.000
253.000	95.000
254.000	120.000
255.000	153.000
256.000	170.000
257.000	159.000
258.000	154.000
259.000	146.000
260.000	150.000
261.000	99.000
262.000	80.000
263.000	69.000
264.000	53.000
265.000	34.000
266.000	37.000
267.000	26.000
268.000	20.000
269.000	22.000
270.000	21.000
271.000	30.000
272.000	24.000
273.000	30.000
274.000	38.000
275.000	38.000
276.000	32.000
277.000	32.000
278.000	33.000
279.000	41.000
280.000	33.000
281.000	36.000
282.000	39.000
283.000	35.000
284.000	43.000
285.000	42.000
286.000	56.000
287.000	53.000
288.000	77.000
289.000	68.000
290.000	88.000
291.000	75.000
292.000	70.000
293.000	60.000
294.000	56.000
295.000	49.000
296.000	33.000
297.000	38.000
298.000	32.000
299.000	24.000
300.000	20.000
301.000	19.000
302.000	23.000
303.000	22.000
304.000	21.000
305.000	19.000
306.000	31.000
307.000	37.000
308.000	26.000
309.000	27.000
310.000	30.000
311.000	42.000
312.000	39.000
313.000	61.000
314.000	41.000
315.000	61.000
316.000	69.000
317.000	88.000
318.000	87.000
319.000	116.000
320.000	159.000
321.000	174.000
322.000	187.000
323.000	206.000
324.000	239.000
325.000	227.000
326.000	206.000
327.000	214.000
328.000	183.000
329.000	153.000
330.000	106.000
331.000	114.000
332.000	64.000
333.000	52.000
334.000	44.000
335.000	33.000
336.000	30.000
337.000	32.000
338.000	39.000
339.000	49.000
340.000	57.000
341.000	61.000
342.000	68.000
343.000	90.000
344.000	97.000
345.000	144.000
346.000	214.000
347.000	304.000
348.000	513.000
349.000	816.000
350.000	1236.000
351.000	1925.000
352.000	2985.000
353.000	4485.000
354.000	6394.000
355.000	8628.000
356.000	11437.000
357.000	14049.000
358.000	17035.000
359.000	19282.000
360.000	21238.000
361.000	22311.000
362.000	21865.000
363.000	20812.000
364.000	19002.000
365.000	16256.000
366.000	13440.000
367.000	10609.000
368.000	7808.000
369.000	5950.000
370.000	4075.000
371.000	2628.000
372.000	1627.000
373.000	1028.000
374.000	630.000
375.000	358.000
376.000	257.000
377.000	196.000
378.000	166.000
379.000	189.000
380.000	200.000
381.000	293.000
382.000	375.000
383.000	529.000
384.000	775.000
385.000	970.000
386.000	1384.000
387.000	1732.000
388.000	2126.000
389.000	2378.000
390.000	2822.000
391.000	3136.000
392.000	3248.000
393.000	3290.000
394.000	3151.000
395.000	2984.000
396.000	2596.000
397.000	2230.000
398.000	1856.000
399.000	1359.000
400.000	1128.000
401.000	751.000
402.000	500.000
403.000	364.000
404.000	238.000
405.000	147.000
406.000	95.000
407.000	53.000
408.000	28.000
409.000	29.000
410.000	11.000
411.000	11.000
412.000	9.000
413.000	6.000
414.000	11.000
415.000	10.000
416.000	8.000
417.000	10.000
418.000	10.000
419.000	6.000
420.000	6.000
421.000	9.000
422.000	9.000
423.000	12.000
424.000	6.000
425.000	11.000
426.000	10.000
427.000	7.000
428.000	10.000
429.000	21.000
430.000	41.000
431.000	51.000
432.000	53.000
433.000	79.000
434.000	87.000
435.000	100.000
436.000	144.000
437.000	187.000
438.000	208.000
439.000	219.000
440.000	248.000
441.000	270.000
442.000	237.000
443.000	229.000
444.000	232.000
445.000	196.000
446.000	176.000
447.000	140.000
448.000	94.000
449.000	83.000
450.000	66.000
451.000	52.000
452.000	49.000
453.000	43.000
454.000	39.000
455.000	41.000
456.000	45.000
457.000	33.000
458.000	22.000
459.000	24.000
460.000	25.000
461.000	18.000
462.000	19.000
463.000	26.000
464.000	14.000
465.000	13.000
466.000	19.000
467.000	12.000
468.000	14.000
469.000	21.000
470.000	17.000
471.000	26.000
472.000	24.000
473.000	34.000
474.000	23.000
475.000	29.000
476.000	35.000
477.000	28.000
478.000	50.000
479.000	49.000
480.000	50.000
481.000	57.000
482.000	65.000
483.000	47.000
484.000	47.000
485.000	58.000
486.000	58.000
487.000	42.000
488.000	41.000
489.000	28.000
490.000	24.000
491.000	16.000
492.000	19.000
493.000	18.000
494.000	16.000
495.000	14.000
496.000	15.000
497.000	16.000
498.000	14.000
499.000	17.000
500.000	15.000
501.000	9.000
502.000	10.000
503.000	17.000
504.000	8.000
505.000	16.000
506.000	11.000
507.000	16.000
508.000	21.000
509.000	23.000
510.000	21.000
511.000	18.000
512.000	16.000
513.000	24.000
514.000	27.000
515.000	13.000
516.000	20.000
517.000	16.000
518.000	28.000
519.000	28.000
520.000	33.000
521.000	25.000
522.000	37.000
523.000	36.000
524.000	39.000
525.000	40.000
526.000	39.000
527.000	49.000
528.000	39.000
529.000	43.000
530.000	38.000
531.000	29.000
532.000	40.000
533.000	32.000
534.000	35.000
535.000	35.000
536.000	25.000
537.000	21.000
538.000	22.000
539.000	17.000
540.000	14.000
541.000	18.000
542.000	21.000
543.000	30.000
544.000	21.000
545.000	18.000
546.000	16.000
547.000	16.000
548.000	21.000
549.000	16.000
550.000	21.000
551.000	28.000
552.000	22.000
553.000	26.000
554.000	17.000
555.000	24.000
556.000	30.000
557.000	35.000
558.000	34.000
559.000	31.000
560.000	29.000
561.000	36.000
562.000	36.000
563.000	36.000
564.000	28.000
565.000	51.000
566.000	45.000
567.000	40.000
568.000	70.000
569.000	56.000
570.000	78.000
571.000	92.000
572.000	86.000
573.000	114.000
574.000	119.000
575.000	128.000
576.000	99.000
577.000	124.000
578.000	151.000
579.000	116.000
580.000	102.000
581.000	94.000
582.000	76.000
583.000	72.000
584.000	60.000
585.000	56.000
586.000	51.000
587.000	52.000
588.000	46.000
589.000	39.000
590.000	25.000
591.000	44.000
592.000	30.000
593.000	22.000
594.000	25.000
595.000	38.000
596.000	28.000
597.000	23.000
598.000	35.000
599.000	32.000
600.000	35.000
601.000	35.000
602.000	49.000
603.000	44.000
604.000	43.000
605.000	51.000
606.000	71.000
607.000	86.000
608.000	73.000
609.000	122.000
610.000	171.000
611.000	250.000
612.000	353.000
613.000	512.000
614.000	760.000
615.000	1030.000
616.000	1228.000
617.000	1716.000
618.000	2062.000
619.000	2497.000
620.000	2971.000
621.000	3650.000
622.000	3872.000
623.000	4288.000
624.000	4492.000
625.000	4448.000
626.000	4548.000
627.000	4388.000
628.000	4142.000
629.000	3710.000
630.000	3309.000
631.000	2843.000
632.000	2347.000
633.000	1871.000
634.000	1487.000
635.000	1219.000
636.000	868.000
637.000	667.000
638.000	399.000
639.000	335.000
640.000	237.000
641.000	182.000
642.000	138.000
643.000	89.000
644.000	84.000
645.000	82.000
646.000	60.000
647.000	55.000
648.000	50.000
649.000	49.000
650.000	61.000
651.000	61.000
652.000	57.000
653.000	45.000
654.000	51.000
655.000	63.000
656.000	52.000
657.000	53.000
658.000	57.000
659.000	58.000
660.000	70.000
661.000	61.000
662.000	60.000
663.000	65.000
664.000	58.000
665.000	55.000
666.000	69.000
667.000	58.000
668.000	70.000
669.000	80.000
670.000	70.000
671.000	75.000
672.000	90.000
673.000	92.000
674.000	131.000
675.000	130.000
676.000	143.000
677.000	199.000
678.000	222.000
679.000	257.000
680.000	286.000
681.000	357.000
682.000	418.000
683.000	493.000
684.000	536.000
685.000	625.000
686.000	659.000
687.000	752.000
688.000	793.000
689.000	764.000
690.000	790.000
691.000	776.000
692.000	703.000
693.000	651.000
694.000	575.000
695.000	524.000
696.000	440.000
697.000	341.000
698.000	307.000
699.000	249.000
700.000	196.000
701.000	162.000
702.000	133.000
703.000	111.000
704.000	86.000
705.000	67.000
706.000	72.000
707.000	88.000
708.000	58.000
709.000	54.000
710.000	71.000
711.000	66.000
712.000	64.000
713.000	65.000
714.000	70.000
715.000	72.000
716.000	66.000
717.000	63.000
718.000	71.000
719.000	68.000
720.000	84.000
721.000	63.000
722.000	95.000
723.000	86.000
724.000	98.000
725.000	88.000
726.000	101.000
727.000	88.000
728.000	76.000
729.000	96.000
730.000	100.000
731.000	89.000
732.000	99.000
733.000	74.000
734.000	81.000
735.000	81.000
736.000	82.000
737.000	80.000
738.000	64.000
739.000	65.000
740.000	79.000
741.000	73.000
742.000	62.000
743.000	74.000
744.000	77.000
745.000	66.000
746.000	81.000
747.000	66.000
748.000	73.000
749.000	67.000
750.000	65.000
751.000	79.000
752.000	67.000
753.000	64.000
754.000	62.000
755.000	71.000
756.000	57.000
757.000	58.000
758.000	61.000
759.000	70.000
760.000	75.000
761.000	76.000
762.000	77.000
763.000	75.000
764.000	73.000
765.000	83.000
766.000	78.000
767.000	76.000
768.000	77.000
769.000	79.000
770.000	81.000
771.000	75.000
772.000	81.000
773.000	83.000
774.000	80.000
775.000	92.000
776.000	98.000
777.000	85.000
778.000	89.000
779.000	98.000
780.000	103.000
781.000	110.000
782.000	93.000
783.000	97.000
784.000	109.000
785.000	116.000
786.000	113.000
787.000	123.000
788.000	121.000
789.000	145.000
790.000	122.000
791.000	124.000
792.000	150.000
793.000	143.000
794.000	132.000
795.000	140.000
796.000	146.000
797.000	141.000
798.000	128.000
799.000	143.000
800.000	134.000
801.000	140.000
802.000	125.000
803.000	151.000
804.000	157.000
805.000	152.000
806.000	135.000
807.000	158.000
808.000	159.000
809.000	168.000
810.000	195.000
811.000	190.000
812.000	183.000
813.000	240.000
814.000	228.000
815.000	273.000
816.000	284.000
817.000	261.000
818.000	275.000
819.000	281.000
820.000	316.000
821.000	287.000
822.000	288.000
823.000	258.000
824.000	288.000
825.000	211.000
826.000	227.000
827.000	210.000
828.000	195.000
829.000	165.000
830.000	171.000
831.000	149.000
832.000	161.000
833.000	145.000
834.000	105.000
835.000	126.000
836.000	117.000
837.000	117.000
838.000	108.000
839.000	130.000
840.000	125.000
841.000	111.000
842.000	110.000
843.000	119.000
844.000	120.000
845.000	101.000
846.000	125.000
847.000	124.000
848.000	103.000
849.000	134.000
850.000	116.000
851.000	122.000
852.000	107.000
853.000	113.000
854.000	113.000
855.000	109.000
856.000	107.000
857.000	111.000
858.000	127.000
859.000	140.000
860.000	115.000
861.000	120.000
862.000	110.000
863.000	116.000
864.000	130.000
865.000	108.000
866.000	104.000
867.000	121.000
868.000	113.000
869.000	121.000
870.000	98.000
871.000	106.000
872.000	106.000
873.000	105.000
874.000	106.000
875.000	100.000
876.000	117.000
877.000	116.000
878.000	113.000
879.000	111.000
880.000	107.000
881.000	123.000
882.000	110.000
883.000	112.000
884.000	119.000
885.000	130.000
886.000	124.000
887.000	113.000
888.000	104.000
889.000	114.000
890.000	128.000
891.000	121.000
892.000	113.000
893.000	117.000
894.000	110.000
895.000	143.000
896.000	111.000
897.000	139.000
898.000	96.000
899.000	150.000
900.000	148.000
901.000	131.000
902.000	147.000
903.000	162.000
904.000	145.000
905.000	138.000
906.000	143.000
907.000	162.000
908.000	148.000
909.000	156.000
910.000	157.000
911.000	140.000
912.000	158.000
913.000	151.000
914.000	168.000
915.000	198.000
916.000	157.000
917.000	161.000
918.000	186.000
919.000	161.000
920.000	184.000
921.000	161.000
922.000	202.000
923.000	183.000
924.000	171.000
925.000	175.000
926.000	158.000
927.000	182.000
928.000	209.000
929.000	175.000
930.000	200.000
931.000	197.000
932.000	200.000
933.000	202.000
934.000	214.000
935.000	219.000
936.000	190.000
937.000	213.000
938.000	224.000
939.000	253.000
940.000	226.000
941.000	261.000
942.000	266.000
943.000	290.000
944.000	267.000
945.000	269.000
946.000	238.000
947.000	244.000
948.000	260.000
949.000	240.000
950.000	213.000
951.000	210.000
952.000	190.000
953.000	195.000
954.000	209.000
955.000	172.000
956.000	202.000
957.000	210.000
958.000	161.000
959.000	177.000
960.000	172.000
961.000	175.000
962.000	192.000
963.000	187.000
964.000	163.000
965.000	160.000
966.000	219.000
967.000	189.000
968.000	183.000
969.000	182.000
970.000	199.000
971.000	181.000
972.000	171.000
973.000	201.000
974.000	196.000
975.000	182.000
976.000	162.000
977.000	198.000
978.000	157.000
979.000	167.000
980.000	162.000
981.000	179.000
982.000	170.000
983.000	150.000
984.000	154.000
985.000	161.000
986.000	162.000
987.000	145.000
988.000	120.000
989.000	177.000
990.000	148.000
991.000	139.000
992.000	153.000
993.000	146.000
994.000	128.000
995.000	144.000
996.000	144.000
997.000	146.000
998.000	142.000
999.000	124.000
1000.000	136.000
1001.000	137.000
1002.000	134.000
1003.000	124.000
1004.000	109.000
1005.000	131.000
1006.000	157.000
1007.000	136.000
1008.000	138.000
1009.000	120.000
1010.000	129.000
1011.000	137.000
1012.000	129.000
1013.000	135.000
1014.000	146.000
1015.000	121.000
1016.000	132.000
1017.000	128.000
1018.000	118.000
1019.000	140.000
1020.000	125.000
1021.000	134.000
1022.000	138.000
1023.000	117.000
1024.000	141.000
1025.000	134.000
1026.000	144.000
1027.000	154.000
1028.000	148.000
1029.000	156.000
1030.000	145.000
1031.000	136.000
1032.000	162.000
1033.000	150.000
1034.000	126.000
1035.000	131.000
1036.000	118.000
1037.000	148.000
1038.000	138.000
1039.000	141.000
1040.000	146.000
1041.000	163.000
1042.000	131.000
1043.000	146.000
1044.000	144.000
1045.000	161.000
1046.000	146.000
1047.000	144.000
1048.000	132.000
1049.000	167.000
1050.000	146.000
1051.000	123.000
1052.000	156.000
1053.000	171.000
1054.000	141.000
1055.000	177.000
1056.000	163.000
1057.000	168.000
1058.000	150.000
1059.000	131.000
1060.000	156.000
1061.000	174.000
1062.000	163.000
1063.000	151.000
1064.000	150.000
1065.000	167.000
1066.000	159.000
1067.000	130.000
1068.000	140.000
1069.000	139.000
1070.000	175.000
1071.000	151.000
1072.000	166.000
1073.000	151.000
1074.000	151.000
1075.000	134.000
1076.000	174.000
1077.000	167.000
1078.000	179.000
1079.000	149.000
1080.000	152.000
1081.000	142.000
1082.000	166.000
1083.000	148.000
1084.000	145.000
1085.000	170.000
1086.000	150.000
1087.000	159.000
1088.000	150.000
1089.000	167.000
1090.000	149.000
1091.000	173.000
1092.000	177.000
1093.000	182.000
1094.000	174.000
1095.000	159.000
1096.000	160.000
1097.000	167.000
1098.000	165.000
1099.000	161.000
1100.000	176.000
1101.000	165.000
1102.000	168.000
1103.000	160.000
1104.000	170.000
1105.000	154.000
1106.000	184.000
1107.000	153.000
1108.000	177.000
1109.000	178.000
1110.000	185.000
1111.000	161.000
1112.000	162.000
1113.000	174.000
1114.000	166.000
1115.000	168.000
1116.000	167.000
1117.000	155.000
1118.000	147.000
1119.000	166.000
1120.000	160.000
1121.000	163.000
1122.000	132.000
1123.000	174.000
1124.000	162.000
1125.000	140.000
1126.000	158.000
1127.000	171.000
1128.000	148.000
1129.000	170.000
1130.000	180.000
1131.000	153.000
1132.000	170.000
1133.000	164.000
1134.000	167.000
1135.000	157.000
1136.000	164.000
1137.000	147.000
1138.000	140.000
1139.000	162.000
1140.000	148.000
1141.000	137.000
1142.000	170.000
1143.000	153.000
1144.000	165.000
1145.000	183.000
1146.000	160.000
1147.000	163.000
1148.000	170.000
1149.000	168.000
1150.000	159.000
1151.000	173.000
1152.000	165.000
1153.000	149.000
1154.000	195.000
1155.000	181.000
1156.000	163.000
1157.000	192.000
