Date:	18-Sep-20		Time:	12:39 AM		Version no:	0.00		Project name:	55		Sample name:	222		Section name:	section		Position	59.220018	mm	E0	0.000000	keV	E1	1.000000	keV/channel	sample surface	6.899898	cm	Tube anode:	Mo		Tube voltage:	30	kV	Tube current:	30	mA	gain	15		std. database			resultfile	result		matrix element	11		sample thickness	1.000000		air passage	0.560000	cm	comments	in position		peaking_time	0.300000	m-sec	trigger_threshold	40.000000	V	mca_bin_width	2.000000	no:	number_mca_channels	2048.000000	no:	gap_time	2048.000000	m-sec	trigger_peaking_time	2048.000000	m-sec	GAINDAC	400		HIGHGAIN	400		TAURC	400		RCTAU	400		RCTAUFRAC	400		livetime	13.291963	seconds	runtime	15.000034	seconds	input_count_rate	46024.502419	cps	output_count_rate	40783.639531	cps	triggers	678430	seconds	events_in_run	593870	seconds	channel	content		1.000	0.000
2.000	0.000
3.000	0.000
4.000	0.000
5.000	0.000
6.000	0.000
7.000	0.000
8.000	0.000
9.000	0.000
10.000	0.000
11.000	0.000
12.000	0.000
13.000	0.000
14.000	0.000
15.000	0.000
16.000	0.000
17.000	0.000
18.000	0.000
19.000	0.000
20.000	0.000
21.000	0.000
22.000	0.000
23.000	0.000
24.000	0.000
25.000	0.000
26.000	0.000
27.000	0.000
28.000	0.000
29.000	0.000
30.000	0.000
31.000	1.000
32.000	1.000
33.000	0.000
34.000	0.000
35.000	0.000
36.000	1.000
37.000	0.000
38.000	1.000
39.000	1.000
40.000	0.000
41.000	0.000
42.000	0.000
43.000	0.000
44.000	1.000
45.000	0.000
46.000	0.000
47.000	0.000
48.000	0.000
49.000	0.000
50.000	1.000
51.000	2.000
52.000	2.000
53.000	1.000
54.000	3.000
55.000	5.000
56.000	6.000
57.000	7.000
58.000	18.000
59.000	25.000
60.000	19.000
61.000	27.000
62.000	21.000
63.000	26.000
64.000	33.000
65.000	25.000
66.000	32.000
67.000	33.000
68.000	32.000
69.000	25.000
70.000	28.000
71.000	26.000
72.000	25.000
73.000	26.000
74.000	31.000
75.000	26.000
76.000	24.000
77.000	26.000
78.000	31.000
79.000	28.000
80.000	27.000
81.000	26.000
82.000	29.000
83.000	21.000
84.000	27.000
85.000	28.000
86.000	31.000
87.000	16.000
88.000	25.000
89.000	28.000
90.000	30.000
91.000	17.000
92.000	24.000
93.000	17.000
94.000	21.000
95.000	21.000
96.000	15.000
97.000	27.000
98.000	13.000
99.000	20.000
100.000	22.000
101.000	26.000
102.000	21.000
103.000	19.000
104.000	21.000
105.000	25.000
106.000	24.000
107.000	21.000
108.000	13.000
109.000	19.000
110.000	27.000
111.000	33.000
112.000	17.000
113.000	23.000
114.000	8.000
115.000	21.000
116.000	21.000
117.000	22.000
118.000	19.000
119.000	17.000
120.000	23.000
121.000	20.000
122.000	21.000
123.000	14.000
124.000	11.000
125.000	10.000
126.000	14.000
127.000	19.000
128.000	13.000
129.000	20.000
130.000	14.000
131.000	16.000
132.000	14.000
133.000	19.000
134.000	11.000
135.000	20.000
136.000	18.000
137.000	17.000
138.000	12.000
139.000	16.000
140.000	23.000
141.000	13.000
142.000	21.000
143.000	23.000
144.000	33.000
145.000	30.000
146.000	30.000
147.000	27.000
148.000	34.000
149.000	30.000
150.000	29.000
151.000	22.000
152.000	22.000
153.000	27.000
154.000	23.000
155.000	25.000
156.000	28.000
157.000	21.000
158.000	22.000
159.000	14.000
160.000	14.000
161.000	22.000
162.000	17.000
163.000	29.000
164.000	41.000
165.000	44.000
166.000	62.000
167.000	101.000
168.000	121.000
169.000	126.000
170.000	146.000
171.000	133.000
172.000	106.000
173.000	114.000
174.000	83.000
175.000	72.000
176.000	51.000
177.000	55.000
178.000	46.000
179.000	36.000
180.000	27.000
181.000	27.000
182.000	27.000
183.000	22.000
184.000	24.000
185.000	43.000
186.000	34.000
187.000	62.000
188.000	72.000
189.000	66.000
190.000	71.000
191.000	85.000
192.000	83.000
193.000	60.000
194.000	60.000
195.000	52.000
196.000	48.000
197.000	31.000
198.000	21.000
199.000	18.000
200.000	17.000
201.000	12.000
202.000	14.000
203.000	10.000
204.000	16.000
205.000	13.000
206.000	9.000
207.000	7.000
208.000	11.000
209.000	14.000
210.000	6.000
211.000	16.000
212.000	12.000
213.000	17.000
214.000	10.000
215.000	15.000
216.000	18.000
217.000	14.000
218.000	13.000
219.000	15.000
220.000	17.000
221.000	18.000
222.000	26.000
223.000	15.000
224.000	27.000
225.000	22.000
226.000	20.000
227.000	9.000
228.000	16.000
229.000	20.000
230.000	17.000
231.000	10.000
232.000	12.000
233.000	16.000
234.000	10.000
235.000	10.000
236.000	10.000
237.000	13.000
238.000	6.000
239.000	6.000
240.000	6.000
241.000	7.000
242.000	8.000
243.000	11.000
244.000	8.000
245.000	8.000
246.000	11.000
247.000	16.000
248.000	18.000
249.000	22.000
250.000	20.000
251.000	43.000
252.000	48.000
253.000	72.000
254.000	72.000
255.000	96.000
256.000	95.000
257.000	101.000
258.000	116.000
259.000	93.000
260.000	69.000
261.000	77.000
262.000	65.000
263.000	34.000
264.000	38.000
265.000	28.000
266.000	23.000
267.000	12.000
268.000	18.000
269.000	26.000
270.000	14.000
271.000	21.000
272.000	24.000
273.000	30.000
274.000	24.000
275.000	24.000
276.000	28.000
277.000	20.000
278.000	24.000
279.000	21.000
280.000	25.000
281.000	23.000
282.000	21.000
283.000	24.000
284.000	34.000
285.000	34.000
286.000	47.000
287.000	52.000
288.000	53.000
289.000	62.000
290.000	56.000
291.000	56.000
292.000	42.000
293.000	47.000
294.000	46.000
295.000	30.000
296.000	23.000
297.000	20.000
298.000	19.000
299.000	14.000
300.000	17.000
301.000	10.000
302.000	13.000
303.000	16.000
304.000	17.000
305.000	15.000
306.000	13.000
307.000	19.000
308.000	12.000
309.000	18.000
310.000	21.000
311.000	25.000
312.000	43.000
313.000	57.000
314.000	98.000
315.000	114.000
316.000	161.000
317.000	233.000
318.000	292.000
319.000	414.000
320.000	495.000
321.000	604.000
322.000	708.000
323.000	781.000
324.000	860.000
325.000	865.000
326.000	777.000
327.000	726.000
328.000	671.000
329.000	469.000
330.000	425.000
331.000	297.000
332.000	231.000
333.000	155.000
334.000	113.000
335.000	74.000
336.000	52.000
337.000	32.000
338.000	28.000
339.000	25.000
340.000	29.000
341.000	34.000
342.000	39.000
343.000	58.000
344.000	67.000
345.000	89.000
346.000	102.000
347.000	150.000
348.000	218.000
349.000	307.000
350.000	442.000
351.000	642.000
352.000	901.000
353.000	1268.000
354.000	1721.000
355.000	2296.000
356.000	2908.000
357.000	3639.000
358.000	4271.000
359.000	4964.000
360.000	5339.000
361.000	5571.000
362.000	5503.000
363.000	5337.000
364.000	4743.000
365.000	4083.000
366.000	3277.000
367.000	2590.000
368.000	1958.000
369.000	1488.000
370.000	937.000
371.000	638.000
372.000	439.000
373.000	257.000
374.000	140.000
375.000	86.000
376.000	68.000
377.000	59.000
378.000	60.000
379.000	64.000
380.000	63.000
381.000	78.000
382.000	100.000
383.000	148.000
384.000	210.000
385.000	235.000
386.000	333.000
387.000	402.000
388.000	523.000
389.000	629.000
390.000	715.000
391.000	776.000
392.000	813.000
393.000	859.000
394.000	799.000
395.000	826.000
396.000	717.000
397.000	576.000
398.000	468.000
399.000	353.000
400.000	288.000
401.000	226.000
402.000	167.000
403.000	92.000
404.000	64.000
405.000	52.000
406.000	36.000
407.000	19.000
408.000	17.000
409.000	11.000
410.000	13.000
411.000	6.000
412.000	6.000
413.000	9.000
414.000	7.000
415.000	13.000
416.000	14.000
417.000	9.000
418.000	11.000
419.000	14.000
420.000	11.000
421.000	8.000
422.000	13.000
423.000	9.000
424.000	16.000
425.000	22.000
426.000	30.000
427.000	31.000
428.000	34.000
429.000	59.000
430.000	60.000
431.000	97.000
432.000	129.000
433.000	198.000
434.000	279.000
435.000	299.000
436.000	440.000
437.000	514.000
438.000	622.000
439.000	671.000
440.000	669.000
441.000	706.000
442.000	689.000
443.000	646.000
444.000	600.000
445.000	534.000
446.000	501.000
447.000	323.000
448.000	280.000
449.000	214.000
450.000	172.000
451.000	148.000
452.000	111.000
453.000	112.000
454.000	69.000
455.000	80.000
456.000	74.000
457.000	59.000
458.000	45.000
459.000	36.000
460.000	48.000
461.000	27.000
462.000	44.000
463.000	25.000
464.000	26.000
465.000	25.000
466.000	38.000
467.000	34.000
468.000	27.000
469.000	41.000
470.000	29.000
471.000	44.000
472.000	63.000
473.000	51.000
474.000	87.000
475.000	58.000
476.000	94.000
477.000	88.000
478.000	95.000
479.000	119.000
480.000	127.000
481.000	137.000
482.000	133.000
483.000	138.000
484.000	127.000
485.000	128.000
486.000	101.000
487.000	100.000
488.000	73.000
489.000	63.000
490.000	62.000
491.000	36.000
492.000	41.000
493.000	34.000
494.000	32.000
495.000	21.000
496.000	20.000
497.000	23.000
498.000	26.000
499.000	26.000
500.000	24.000
501.000	24.000
502.000	23.000
503.000	23.000
504.000	23.000
505.000	25.000
506.000	17.000
507.000	37.000
508.000	30.000
509.000	34.000
510.000	44.000
511.000	37.000
512.000	40.000
513.000	33.000
514.000	37.000
515.000	44.000
516.000	48.000
517.000	43.000
518.000	44.000
519.000	43.000
520.000	32.000
521.000	51.000
522.000	57.000
523.000	56.000
524.000	51.000
525.000	66.000
526.000	68.000
527.000	69.000
528.000	49.000
529.000	54.000
530.000	56.000
531.000	70.000
532.000	63.000
533.000	49.000
534.000	57.000
535.000	59.000
536.000	58.000
537.000	36.000
538.000	36.000
539.000	40.000
540.000	46.000
541.000	36.000
542.000	32.000
543.000	31.000
544.000	29.000
545.000	25.000
546.000	28.000
547.000	22.000
548.000	29.000
549.000	32.000
550.000	25.000
551.000	31.000
552.000	37.000
553.000	33.000
554.000	35.000
555.000	35.000
556.000	30.000
557.000	43.000
558.000	24.000
559.000	48.000
560.000	34.000
561.000	47.000
562.000	49.000
563.000	52.000
564.000	74.000
565.000	99.000
566.000	98.000
567.000	117.000
568.000	133.000
569.000	202.000
570.000	214.000
571.000	228.000
572.000	262.000
573.000	353.000
574.000	367.000
575.000	395.000
576.000	375.000
577.000	353.000
578.000	394.000
579.000	316.000
580.000	312.000
581.000	259.000
582.000	232.000
583.000	197.000
584.000	167.000
585.000	132.000
586.000	116.000
587.000	111.000
588.000	74.000
589.000	53.000
590.000	63.000
591.000	55.000
592.000	46.000
593.000	39.000
594.000	51.000
595.000	58.000
596.000	59.000
597.000	52.000
598.000	75.000
599.000	50.000
600.000	51.000
601.000	78.000
602.000	56.000
603.000	89.000
604.000	84.000
605.000	102.000
606.000	120.000
607.000	187.000
608.000	227.000
609.000	295.000
610.000	447.000
611.000	570.000
612.000	867.000
613.000	1222.000
614.000	1628.000
615.000	2299.000
616.000	3060.000
617.000	3859.000
618.000	4898.000
619.000	6071.000
620.000	7098.000
621.000	8169.000
622.000	9206.000
623.000	10112.000
624.000	10713.000
625.000	10965.000
626.000	10717.000
627.000	10344.000
628.000	9770.000
629.000	8851.000
630.000	7821.000
631.000	6682.000
632.000	5580.000
633.000	4513.000
634.000	3517.000
635.000	2729.000
636.000	2069.000
637.000	1464.000
638.000	1062.000
639.000	743.000
640.000	559.000
641.000	362.000
642.000	249.000
643.000	209.000
644.000	149.000
645.000	111.000
646.000	101.000
647.000	106.000
648.000	68.000
649.000	89.000
650.000	86.000
651.000	78.000
652.000	68.000
653.000	85.000
654.000	68.000
655.000	71.000
656.000	81.000
657.000	69.000
658.000	79.000
659.000	70.000
660.000	70.000
661.000	91.000
662.000	82.000
663.000	79.000
664.000	97.000
665.000	76.000
666.000	89.000
667.000	115.000
668.000	87.000
669.000	109.000
670.000	133.000
671.000	146.000
672.000	156.000
673.000	162.000
674.000	191.000
675.000	234.000
676.000	292.000
677.000	362.000
678.000	450.000
679.000	516.000
680.000	645.000
681.000	789.000
682.000	941.000
683.000	1129.000
684.000	1258.000
685.000	1404.000
686.000	1587.000
687.000	1707.000
688.000	1788.000
689.000	1793.000
690.000	1752.000
691.000	1792.000
692.000	1620.000
693.000	1421.000
694.000	1340.000
695.000	1126.000
696.000	1014.000
697.000	788.000
698.000	659.000
699.000	506.000
700.000	433.000
701.000	329.000
702.000	256.000
703.000	189.000
704.000	152.000
705.000	117.000
706.000	106.000
707.000	87.000
708.000	71.000
709.000	77.000
710.000	81.000
711.000	71.000
712.000	88.000
713.000	57.000
714.000	83.000
715.000	66.000
716.000	74.000
717.000	69.000
718.000	63.000
719.000	66.000
720.000	72.000
721.000	85.000
722.000	89.000
723.000	84.000
724.000	112.000
725.000	95.000
726.000	106.000
727.000	111.000
728.000	101.000
729.000	93.000
730.000	92.000
731.000	112.000
732.000	102.000
733.000	94.000
734.000	85.000
735.000	84.000
736.000	86.000
737.000	85.000
738.000	84.000
739.000	80.000
740.000	83.000
741.000	83.000
742.000	75.000
743.000	70.000
744.000	57.000
745.000	75.000
746.000	77.000
747.000	74.000
748.000	65.000
749.000	78.000
750.000	77.000
751.000	85.000
752.000	84.000
753.000	58.000
754.000	74.000
755.000	71.000
756.000	82.000
757.000	72.000
758.000	83.000
759.000	104.000
760.000	79.000
761.000	65.000
762.000	82.000
763.000	76.000
764.000	86.000
765.000	80.000
766.000	93.000
767.000	89.000
768.000	80.000
769.000	81.000
770.000	96.000
771.000	96.000
772.000	86.000
773.000	110.000
774.000	102.000
775.000	118.000
776.000	106.000
777.000	115.000
778.000	100.000
779.000	127.000
780.000	125.000
781.000	111.000
782.000	126.000
783.000	117.000
784.000	151.000
785.000	134.000
786.000	136.000
787.000	157.000
788.000	150.000
789.000	154.000
790.000	158.000
791.000	162.000
792.000	136.000
793.000	168.000
794.000	150.000
795.000	177.000
796.000	168.000
797.000	138.000
798.000	166.000
799.000	170.000
800.000	197.000
801.000	158.000
802.000	150.000
803.000	199.000
804.000	181.000
805.000	157.000
806.000	169.000
807.000	162.000
808.000	178.000
809.000	183.000
810.000	218.000
811.000	242.000
812.000	221.000
813.000	265.000
814.000	293.000
815.000	292.000
816.000	306.000
817.000	317.000
818.000	319.000
819.000	316.000
820.000	310.000
821.000	287.000
822.000	293.000
823.000	266.000
824.000	264.000
825.000	256.000
826.000	240.000
827.000	209.000
828.000	186.000
829.000	200.000
830.000	177.000
831.000	178.000
832.000	169.000
833.000	159.000
834.000	161.000
835.000	167.000
836.000	142.000
837.000	180.000
838.000	192.000
839.000	157.000
840.000	165.000
841.000	162.000
842.000	172.000
843.000	154.000
844.000	169.000
845.000	151.000
846.000	157.000
847.000	168.000
848.000	188.000
849.000	152.000
850.000	155.000
851.000	158.000
852.000	156.000
853.000	115.000
854.000	143.000
855.000	145.000
856.000	125.000
857.000	148.000
858.000	140.000
859.000	123.000
860.000	113.000
861.000	127.000
862.000	130.000
863.000	129.000
864.000	127.000
865.000	117.000
866.000	124.000
867.000	131.000
868.000	130.000
869.000	125.000
870.000	118.000
871.000	146.000
872.000	154.000
873.000	141.000
874.000	141.000
875.000	154.000
876.000	131.000
877.000	135.000
878.000	132.000
879.000	111.000
880.000	139.000
881.000	118.000
882.000	151.000
883.000	122.000
884.000	127.000
885.000	124.000
886.000	139.000
887.000	151.000
888.000	139.000
889.000	161.000
890.000	141.000
891.000	160.000
892.000	148.000
893.000	155.000
894.000	170.000
895.000	171.000
896.000	162.000
897.000	152.000
898.000	157.000
899.000	166.000
900.000	189.000
901.000	164.000
902.000	161.000
903.000	193.000
904.000	178.000
905.000	189.000
906.000	170.000
907.000	194.000
908.000	206.000
909.000	216.000
910.000	169.000
911.000	207.000
912.000	209.000
913.000	209.000
914.000	192.000
915.000	193.000
916.000	194.000
917.000	180.000
918.000	187.000
919.000	202.000
920.000	191.000
921.000	202.000
922.000	234.000
923.000	187.000
924.000	202.000
925.000	244.000
926.000	204.000
927.000	226.000
928.000	221.000
929.000	237.000
930.000	225.000
931.000	219.000
932.000	226.000
933.000	221.000
934.000	264.000
935.000	260.000
936.000	260.000
937.000	270.000
938.000	271.000
939.000	276.000
940.000	284.000
941.000	286.000
942.000	299.000
943.000	267.000
944.000	291.000
945.000	293.000
946.000	271.000
947.000	286.000
948.000	302.000
949.000	240.000
950.000	285.000
951.000	258.000
952.000	223.000
953.000	242.000
954.000	202.000
955.000	183.000
956.000	213.000
957.000	200.000
958.000	189.000
959.000	182.000
960.000	215.000
961.000	187.000
962.000	213.000
963.000	217.000
964.000	188.000
965.000	218.000
966.000	192.000
967.000	189.000
968.000	207.000
969.000	200.000
970.000	230.000
971.000	230.000
972.000	193.000
973.000	210.000
974.000	211.000
975.000	188.000
976.000	190.000
977.000	190.000
978.000	170.000
979.000	186.000
980.000	192.000
981.000	184.000
982.000	184.000
983.000	173.000
984.000	166.000
985.000	183.000
986.000	179.000
987.000	151.000
988.000	167.000
989.000	157.000
990.000	178.000
991.000	149.000
992.000	165.000
993.000	172.000
994.000	165.000
995.000	161.000
996.000	142.000
997.000	147.000
998.000	150.000
999.000	174.000
1000.000	180.000
1001.000	160.000
1002.000	133.000
1003.000	166.000
1004.000	139.000
1005.000	151.000
1006.000	149.000
1007.000	151.000
1008.000	164.000
1009.000	155.000
1010.000	161.000
1011.000	164.000
1012.000	165.000
1013.000	154.000
1014.000	131.000
1015.000	137.000
1016.000	143.000
1017.000	190.000
1018.000	146.000
1019.000	179.000
1020.000	182.000
1021.000	142.000
1022.000	181.000
1023.000	150.000
1024.000	179.000
1025.000	160.000
1026.000	145.000
1027.000	159.000
1028.000	161.000
1029.000	146.000
1030.000	163.000
1031.000	192.000
1032.000	159.000
1033.000	175.000
1034.000	160.000
1035.000	182.000
1036.000	147.000
1037.000	151.000
1038.000	170.000
1039.000	171.000
1040.000	162.000
1041.000	146.000
1042.000	162.000
1043.000	126.000
1044.000	170.000
1045.000	166.000
1046.000	188.000
1047.000	191.000
1048.000	162.000
1049.000	167.000
1050.000	164.000
1051.000	160.000
1052.000	181.000
1053.000	191.000
1054.000	159.000
1055.000	156.000
1056.000	177.000
1057.000	173.000
1058.000	185.000
1059.000	159.000
1060.000	190.000
1061.000	194.000
1062.000	191.000
1063.000	187.000
1064.000	175.000
1065.000	200.000
1066.000	196.000
1067.000	166.000
1068.000	179.000
1069.000	154.000
1070.000	160.000
1071.000	182.000
1072.000	194.000
1073.000	173.000
1074.000	192.000
1075.000	182.000
1076.000	157.000
1077.000	159.000
1078.000	169.000
1079.000	188.000
1080.000	152.000
1081.000	185.000
1082.000	186.000
1083.000	178.000
1084.000	158.000
1085.000	183.000
1086.000	199.000
1087.000	172.000
1088.000	183.000
1089.000	176.000
1090.000	189.000
1091.000	184.000
1092.000	187.000
1093.000	215.000
1094.000	159.000
1095.000	162.000
1096.000	198.000
1097.000	170.000
1098.000	202.000
1099.000	160.000
1100.000	201.000
1101.000	208.000
1102.000	210.000
1103.000	176.000
1104.000	199.000
1105.000	181.000
1106.000	191.000
1107.000	186.000
1108.000	181.000
1109.000	207.000
1110.000	183.000
1111.000	192.000
1112.000	171.000
1113.000	204.000
1114.000	164.000
1115.000	208.000
1116.000	183.000
1117.000	196.000
1118.000	173.000
1119.000	192.000
1120.000	171.000
1121.000	164.000
1122.000	210.000
1123.000	188.000
1124.000	186.000
1125.000	166.000
1126.000	200.000
1127.000	205.000
1128.000	185.000
1129.000	158.000
1130.000	160.000
1131.000	189.000
1132.000	188.000
1133.000	179.000
1134.000	169.000
1135.000	173.000
1136.000	183.000
1137.000	177.000
1138.000	193.000
1139.000	204.000
1140.000	179.000
1141.000	156.000
1142.000	191.000
1143.000	186.000
1144.000	186.000
1145.000	181.000
1146.000	175.000
1147.000	195.000
1148.000	177.000
1149.000	192.000
1150.000	193.000
1151.000	191.000
1152.000	178.000
1153.000	173.000
1154.000	193.000
1155.000	184.000
