Date:	17-Sep-20		Time:	11:47 PM		Version no:	0.00		Project name:	55		Sample name:	222		Section name:	section		Position	0.000000	mm	E0	0.000000	keV	E1	1.000000	keV/channel	sample surface	2.000000	cm	Tube anode:	Mo		Tube voltage:	30	kV	Tube current:	30	mA	gain	15		std. database			resultfile	result		matrix element	11		sample thickness	1.000000		air passage	0.560000	cm	comments	not in position		peaking_time	0.300000	m-sec	trigger_threshold	40.000000	V	mca_bin_width	2.000000	no:	number_mca_channels	2048.000000	no:	gap_time	2048.000000	m-sec	trigger_peaking_time	2048.000000	m-sec	GAINDAC	400		HIGHGAIN	400		TAURC	400		RCTAU	400		RCTAUFRAC	400		livetime	13.014294	seconds	runtime	15.000232	seconds	input_count_rate	80431.410221	cps	output_count_rate	69782.785033	cps	triggers	1173264	seconds	events_in_run	1020480	seconds	channel	content		1.000	0.000
2.000	0.000
3.000	0.000
4.000	0.000
5.000	0.000
6.000	0.000
7.000	0.000
8.000	0.000
9.000	0.000
10.000	0.000
11.000	0.000
12.000	0.000
13.000	0.000
14.000	0.000
15.000	0.000
16.000	0.000
17.000	0.000
18.000	0.000
19.000	0.000
20.000	0.000
21.000	0.000
22.000	0.000
23.000	0.000
24.000	0.000
25.000	0.000
26.000	0.000
27.000	0.000
28.000	0.000
29.000	0.000
30.000	0.000
31.000	468.000
32.000	502.000
33.000	462.000
34.000	488.000
35.000	506.000
36.000	463.000
37.000	439.000
38.000	460.000
39.000	499.000
40.000	471.000
41.000	502.000
42.000	462.000
43.000	476.000
44.000	521.000
45.000	533.000
46.000	630.000
47.000	694.000
48.000	818.000
49.000	1069.000
50.000	1523.000
51.000	2145.000
52.000	3011.000
53.000	4086.000
54.000	5436.000
55.000	6941.000
56.000	9639.000
57.000	13442.000
58.000	19041.000
59.000	26847.000
60.000	33681.000
61.000	39126.000
62.000	43154.000
63.000	44814.000
64.000	44750.000
65.000	43324.000
66.000	41633.000
67.000	40223.000
68.000	38912.000
69.000	38209.000
70.000	37616.000
71.000	37513.000
72.000	37098.000
73.000	36778.000
74.000	36634.000
75.000	36355.000
76.000	35827.000
77.000	35788.000
78.000	35519.000
79.000	35827.000
80.000	35742.000
81.000	35714.000
82.000	36682.000
83.000	36846.000
84.000	36502.000
85.000	36924.000
86.000	36713.000
87.000	36699.000
88.000	35953.000
89.000	34921.000
90.000	34671.000
91.000	33453.000
92.000	32732.000
93.000	32540.000
94.000	32112.000
95.000	31610.000
96.000	31261.000
97.000	31274.000
98.000	30758.000
99.000	30401.000
100.000	30220.000
101.000	30131.000
102.000	29578.000
103.000	29680.000
104.000	29568.000
105.000	29037.000
106.000	28664.000
107.000	28184.000
108.000	27913.000
109.000	27777.000
110.000	27609.000
111.000	26972.000
112.000	26755.000
113.000	26464.000
114.000	26471.000
115.000	26544.000
116.000	26497.000
117.000	26507.000
118.000	26248.000
119.000	26221.000
120.000	25999.000
121.000	25991.000
122.000	25218.000
123.000	24735.000
124.000	24182.000
125.000	23938.000
126.000	23592.000
127.000	23300.000
128.000	22743.000
129.000	22625.000
130.000	22687.000
131.000	22544.000
132.000	22224.000
133.000	22117.000
134.000	22032.000
135.000	22083.000
136.000	22281.000
137.000	22627.000
138.000	23012.000
139.000	24801.000
140.000	26790.000
141.000	29620.000
142.000	32817.000
143.000	35852.000
144.000	39422.000
145.000	41218.000
146.000	41427.000
147.000	40748.000
148.000	38944.000
149.000	36733.000
150.000	34415.000
151.000	32689.000
152.000	31293.000
153.000	30515.000
154.000	29599.000
155.000	28659.000
156.000	26805.000
157.000	25130.000
158.000	23640.000
159.000	22352.000
160.000	21845.000
161.000	22302.000
162.000	24770.000
163.000	29549.000
164.000	37983.000
165.000	49715.000
166.000	65460.000
167.000	83598.000
168.000	101431.000
169.000	116478.000
170.000	126109.000
171.000	128331.000
172.000	121585.000
173.000	109040.000
174.000	93666.000
175.000	77792.000
176.000	63215.000
177.000	53189.000
178.000	46918.000
179.000	43987.000
180.000	44185.000
181.000	46672.000
182.000	53492.000
183.000	63408.000
184.000	79538.000
185.000	102529.000
186.000	132668.000
187.000	169428.000
188.000	205590.000
189.000	238802.000
190.000	261410.000
191.000	269850.000
192.000	259662.000
193.000	234819.000
194.000	200355.000
195.000	161385.000
196.000	123599.000
197.000	91152.000
198.000	65955.000
199.000	47849.000
200.000	35916.000
201.000	28833.000
202.000	24481.000
203.000	22585.000
204.000	21369.000
205.000	21042.000
206.000	20446.000
207.000	20851.000
208.000	21026.000
209.000	21195.000
210.000	21580.000
211.000	22052.000
212.000	22971.000
213.000	23836.000
214.000	25062.000
215.000	26734.000
216.000	29561.000
217.000	33259.000
218.000	37872.000
219.000	42792.000
220.000	47897.000
221.000	52244.000
222.000	55266.000
223.000	56515.000
224.000	55749.000
225.000	53176.000
226.000	49236.000
227.000	44315.000
228.000	38984.000
229.000	34097.000
230.000	29771.000
231.000	25852.000
232.000	22936.000
233.000	21105.000
234.000	19191.000
235.000	18477.000
236.000	18062.000
237.000	17776.000
238.000	17704.000
239.000	17675.000
240.000	17782.000
241.000	18097.000
242.000	18161.000
243.000	18724.000
244.000	19749.000
245.000	20948.000
246.000	23930.000
247.000	28269.000
248.000	35528.000
249.000	46278.000
250.000	61331.000
251.000	81754.000
252.000	105675.000
253.000	132991.000
254.000	160144.000
255.000	182448.000
256.000	199098.000
257.000	204305.000
258.000	199420.000
259.000	184787.000
260.000	162276.000
261.000	135484.000
262.000	108856.000
263.000	84612.000
264.000	64488.000
265.000	49498.000
266.000	39563.000
267.000	33832.000
268.000	31476.000
269.000	30892.000
270.000	32496.000
271.000	34331.000
272.000	36724.000
273.000	38995.000
274.000	40615.000
275.000	41557.000
276.000	41795.000
277.000	41212.000
278.000	40265.000
279.000	39198.000
280.000	39331.000
281.000	40500.000
282.000	43985.000
283.000	50328.000
284.000	58282.000
285.000	69449.000
286.000	81869.000
287.000	92749.000
288.000	102223.000
289.000	108244.000
290.000	110340.000
291.000	107578.000
292.000	100534.000
293.000	89248.000
294.000	77152.000
295.000	65285.000
296.000	53257.000
297.000	44343.000
298.000	37462.000
299.000	32362.000
300.000	29098.000
301.000	27760.000
302.000	26997.000
303.000	27517.000
304.000	28097.000
305.000	29665.000
306.000	31561.000
307.000	33508.000
308.000	36248.000
309.000	39160.000
310.000	43121.000
311.000	48334.000
312.000	55763.000
313.000	66589.000
314.000	82597.000
315.000	106595.000
316.000	142359.000
317.000	190622.000
318.000	252994.000
319.000	328705.000
320.000	412374.000
321.000	497701.000
322.000	575007.000
323.000	634008.000
324.000	668273.000
325.000	669385.000
326.000	640127.000
327.000	581012.000
328.000	504884.000
329.000	418117.000
330.000	329798.000
331.000	252387.000
332.000	185915.000
333.000	133563.000
334.000	96154.000
335.000	71443.000
336.000	56984.000
337.000	49290.000
338.000	47620.000
339.000	49755.000
340.000	55271.000
341.000	64999.000
342.000	78961.000
343.000	99819.000
344.000	130131.000
345.000	176109.000
346.000	249841.000
347.000	364003.000
348.000	550953.000
349.000	846815.000
350.000	1306650.000
351.000	2008049.000
352.000	3024064.000
353.000	4423608.000
354.000	6259505.000
355.000	8522131.000
356.000	11152234.000
357.000	13942147.000
358.000	16660064.000
359.000	19032776.000
360.000	20782433.000
361.000	21613168.000
362.000	21473743.000
363.000	20352238.000
364.000	18426765.000
365.000	15880565.000
366.000	13075236.000
367.000	10280779.000
368.000	7726948.000
369.000	5538472.000
370.000	3812199.000
371.000	2511590.000
372.000	1599235.000
373.000	987704.000
374.000	604434.000
375.000	378246.000
376.000	254689.000
377.000	196511.000
378.000	180348.000
379.000	194537.000
380.000	232053.000
381.000	299519.000
382.000	399376.000
383.000	539734.000
384.000	731402.000
385.000	978641.000
386.000	1282039.000
387.000	1634904.000
388.000	2014656.000
389.000	2397364.000
390.000	2748405.000
391.000	3023022.000
392.000	3190222.000
393.000	3230969.000
394.000	3139652.000
395.000	2918101.000
396.000	2593716.000
397.000	2211018.000
398.000	1811073.000
399.000	1421710.000
400.000	1067621.000
401.000	771383.000
402.000	535136.000
403.000	359004.000
404.000	233362.000
405.000	147355.000
406.000	92376.000
407.000	58329.000
408.000	37867.000
409.000	26054.000
410.000	19682.000
411.000	16031.000
412.000	14085.000
413.000	13237.000
414.000	12394.000
415.000	12569.000
416.000	12020.000
417.000	12302.000
418.000	12523.000
419.000	12509.000
420.000	12977.000
421.000	13416.000
422.000	13833.000
423.000	14808.000
424.000	16316.000
425.000	18906.000
426.000	22404.000
427.000	28736.000
428.000	38193.000
429.000	52544.000
430.000	73309.000
431.000	102492.000
432.000	141246.000
433.000	191949.000
434.000	250835.000
435.000	319945.000
436.000	396955.000
437.000	471141.000
438.000	537779.000
439.000	594169.000
440.000	629903.000
441.000	643833.000
442.000	633381.000
443.000	600264.000
444.000	546128.000
445.000	480765.000
446.000	407618.000
447.000	336014.000
448.000	269894.000
449.000	214991.000
450.000	169946.000
451.000	134877.000
452.000	111645.000
453.000	95692.000
454.000	83994.000
455.000	76108.000
456.000	69625.000
457.000	64645.000
458.000	59550.000
459.000	53877.000
460.000	48353.000
461.000	43278.000
462.000	38781.000
463.000	35532.000
464.000	32901.000
465.000	31936.000
466.000	32021.000
467.000	32703.000
468.000	34255.000
469.000	36959.000
470.000	40696.000
471.000	45063.000
472.000	50552.000
473.000	57490.000
474.000	65365.000
475.000	74264.000
476.000	85798.000
477.000	95979.000
478.000	106615.000
479.000	117643.000
480.000	126931.000
481.000	133164.000
482.000	135968.000
483.000	135289.000
484.000	131549.000
485.000	124201.000
486.000	113482.000
487.000	101911.000
488.000	88333.000
489.000	76243.000
490.000	64667.000
491.000	55118.000
492.000	46409.000
493.000	40403.000
494.000	35393.000
495.000	31780.000
496.000	29891.000
497.000	28757.000
498.000	27778.000
499.000	27741.000
500.000	28070.000
501.000	28583.000
502.000	29459.000
503.000	30221.000
504.000	30686.000
505.000	31701.000
506.000	32459.000
507.000	33826.000
508.000	34692.000
509.000	35771.000
510.000	37289.000
511.000	38066.000
512.000	39446.000
513.000	40829.000
514.000	41505.000
515.000	43078.000
516.000	44316.000
517.000	46021.000
518.000	48391.000
519.000	50487.000
520.000	53266.000
521.000	56002.000
522.000	60502.000
523.000	63751.000
524.000	68259.000
525.000	72613.000
526.000	76263.000
527.000	80034.000
528.000	80939.000
529.000	81575.000
530.000	80773.000
531.000	78606.000
532.000	74337.000
533.000	69774.000
534.000	64826.000
535.000	60317.000
536.000	55180.000
537.000	51162.000
538.000	46826.000
539.000	44052.000
540.000	41327.000
541.000	39457.000
542.000	38696.000
543.000	38005.000
544.000	37665.000
545.000	37163.000
546.000	37042.000
547.000	37823.000
548.000	37961.000
549.000	38014.000
550.000	38229.000
551.000	39243.000
552.000	39588.000
553.000	40317.000
554.000	41020.000
555.000	41725.000
556.000	42995.000
557.000	44116.000
558.000	45416.000
559.000	47514.000
560.000	50125.000
561.000	54227.000
562.000	58729.000
563.000	65489.000
564.000	75250.000
565.000	87215.000
566.000	102627.000
567.000	121609.000
568.000	145230.000
569.000	171717.000
570.000	201699.000
571.000	231953.000
572.000	262361.000
573.000	289224.000
574.000	310365.000
575.000	325817.000
576.000	331722.000
577.000	327318.000
578.000	316945.000
579.000	298405.000
580.000	273689.000
581.000	243531.000
582.000	213756.000
583.000	183529.000
584.000	156592.000
585.000	131459.000
586.000	110301.000
587.000	94005.000
588.000	80648.000
589.000	71215.000
590.000	64915.000
591.000	60733.000
592.000	57776.000
593.000	56766.000
594.000	56402.000
595.000	57294.000
596.000	58497.000
597.000	59096.000
598.000	61874.000
599.000	63982.000
600.000	66952.000
601.000	71350.000
602.000	76106.000
603.000	83025.000
604.000	94165.000
605.000	111127.000
606.000	135238.000
607.000	174805.000
608.000	233642.000
609.000	323153.000
610.000	457479.000
611.000	652994.000
612.000	927991.000
613.000	1303312.000
614.000	1807253.000
615.000	2451387.000
616.000	3239708.000
617.000	4178566.000
618.000	5253248.000
619.000	6422846.000
620.000	7617864.000
621.000	8779433.000
622.000	9838049.000
623.000	10689496.000
624.000	11275340.000
625.000	11549460.000
626.000	11489971.000
627.000	11092345.000
628.000	10372127.000
629.000	9433206.000
630.000	8332203.000
631.000	7138227.000
632.000	5941080.000
633.000	4811010.000
634.000	3792080.000
635.000	2898622.000
636.000	2169654.000
637.000	1588065.000
638.000	1140536.000
639.000	806147.000
640.000	565628.000
641.000	400705.000
642.000	287746.000
643.000	213262.000
644.000	166097.000
645.000	136798.000
646.000	118038.000
647.000	107024.000
648.000	100484.000
649.000	95862.000
650.000	93865.000
651.000	92446.000
652.000	91676.000
653.000	91517.000
654.000	91710.000
655.000	92746.000
656.000	92917.000
657.000	93667.000
658.000	95924.000
659.000	96797.000
660.000	97415.000
661.000	99705.000
662.000	102655.000
663.000	105139.000
664.000	108036.000
665.000	111650.000
666.000	115606.000
667.000	120503.000
668.000	127101.000
669.000	134006.000
670.000	144118.000
671.000	158113.000
672.000	174894.000
673.000	198432.000
674.000	229032.000
675.000	271085.000
676.000	325890.000
677.000	395214.000
678.000	484282.000
679.000	592600.000
680.000	721819.000
681.000	870616.000
682.000	1033487.000
683.000	1205860.000
684.000	1378223.000
685.000	1543430.000
686.000	1686832.000
687.000	1800637.000
688.000	1879072.000
689.000	1904302.000
690.000	1889225.000
691.000	1821994.000
692.000	1717965.000
693.000	1576225.000
694.000	1410403.000
695.000	1231812.000
696.000	1053767.000
697.000	879678.000
698.000	720913.000
699.000	581116.000
700.000	462827.000
701.000	365234.000
702.000	286885.000
703.000	227537.000
704.000	182776.000
705.000	150616.000
706.000	127424.000
707.000	111586.000
708.000	102399.000
709.000	96069.000
710.000	93442.000
711.000	91792.000
712.000	92017.000
713.000	93004.000
714.000	95141.000
715.000	98143.000
716.000	100736.000
717.000	103646.000
718.000	108561.000
719.000	112629.000
720.000	116105.000
721.000	120997.000
722.000	124802.000
723.000	129280.000
724.000	132744.000
725.000	136534.000
726.000	139161.000
727.000	141303.000
728.000	142408.000
729.000	142491.000
730.000	141276.000
731.000	140303.000
732.000	138187.000
733.000	134971.000
734.000	130752.000
735.000	126775.000
736.000	122273.000
737.000	118731.000
738.000	115710.000
739.000	112257.000
740.000	109188.000
741.000	107002.000
742.000	105068.000
743.000	104036.000
744.000	103526.000
745.000	103618.000
746.000	102983.000
747.000	102823.000
748.000	103473.000
749.000	103741.000
750.000	103888.000
751.000	104450.000
752.000	104288.000
753.000	104858.000
754.000	105122.000
755.000	105399.000
756.000	105099.000
757.000	105981.000
758.000	106435.000
759.000	106744.000
760.000	107139.000
761.000	108096.000
762.000	109055.000
763.000	109187.000
764.000	110326.000
765.000	111616.000
766.000	112617.000
767.000	114722.000
768.000	115848.000
769.000	117552.000
770.000	119785.000
771.000	122553.000
772.000	124449.000
773.000	128222.000
774.000	131824.000
775.000	135308.000
776.000	141140.000
777.000	145339.000
778.000	151313.000
779.000	156453.000
780.000	163155.000
781.000	169969.000
782.000	174641.000
783.000	180905.000
784.000	187233.000
785.000	192827.000
786.000	196028.000
787.000	199617.000
788.000	203711.000
789.000	207147.000
790.000	208883.000
791.000	210479.000
792.000	213084.000
793.000	212924.000
794.000	215049.000
795.000	215547.000
796.000	216240.000
797.000	216555.000
798.000	216725.000
799.000	218073.000
800.000	218294.000
801.000	219924.000
802.000	221883.000
803.000	224228.000
804.000	229148.000
805.000	233943.000
806.000	240373.000
807.000	249108.000
808.000	261017.000
809.000	274304.000
810.000	291802.000
811.000	309007.000
812.000	330216.000
813.000	353793.000
814.000	375537.000
815.000	395802.000
816.000	413538.000
817.000	425160.000
818.000	436559.000
819.000	443844.000
820.000	441932.000
821.000	435899.000
822.000	423553.000
823.000	406707.000
824.000	383395.000
825.000	361556.000
826.000	336462.000
827.000	311319.000
828.000	288024.000
829.000	265556.000
830.000	247865.000
831.000	232490.000
832.000	219737.000
833.000	210836.000
834.000	205190.000
835.000	202326.000
836.000	201051.000
837.000	200846.000
838.000	202602.000
839.000	204742.000
840.000	206215.000
841.000	208032.000
842.000	209223.000
843.000	210394.000
844.000	209489.000
845.000	207706.000
846.000	206272.000
847.000	203257.000
848.000	200472.000
849.000	196718.000
850.000	193052.000
851.000	189133.000
852.000	186286.000
853.000	182389.000
854.000	180615.000
855.000	178683.000
856.000	176406.000
857.000	174795.000
858.000	174302.000
859.000	173650.000
860.000	173322.000
861.000	173426.000
862.000	174570.000
863.000	174141.000
864.000	173609.000
865.000	174817.000
866.000	175304.000
867.000	175137.000
868.000	174680.000
869.000	175743.000
870.000	176228.000
871.000	176745.000
872.000	176049.000
873.000	176175.000
874.000	176357.000
875.000	176624.000
876.000	176035.000
877.000	176023.000
878.000	175852.000
879.000	176350.000
880.000	176423.000
881.000	176911.000
882.000	177125.000
883.000	177523.000
884.000	178977.000
885.000	179728.000
886.000	180862.000
887.000	182190.000
888.000	184015.000
889.000	186105.000
890.000	187132.000
891.000	189737.000
892.000	192471.000
893.000	196005.000
894.000	198621.000
895.000	201004.000
896.000	205096.000
897.000	209415.000
898.000	212877.000
899.000	215987.000
900.000	220864.000
901.000	223930.000
902.000	226781.000
903.000	230623.000
904.000	233551.000
905.000	236443.000
906.000	238811.000
907.000	242855.000
908.000	245282.000
909.000	246346.000
910.000	247948.000
911.000	251439.000
912.000	253576.000
913.000	254761.000
914.000	255575.000
915.000	258015.000
916.000	258829.000
917.000	260043.000
918.000	262474.000
919.000	263828.000
920.000	265668.000
921.000	266851.000
922.000	269436.000
923.000	271686.000
924.000	274082.000
925.000	276952.000
926.000	278425.000
927.000	283683.000
928.000	286685.000
929.000	291491.000
930.000	296646.000
931.000	302675.000
932.000	308996.000
933.000	316124.000
934.000	323082.000
935.000	331923.000
936.000	342021.000
937.000	351598.000
938.000	361583.000
939.000	370126.000
940.000	377034.000
941.000	385359.000
942.000	389437.000
943.000	391868.000
944.000	390226.000
945.000	388933.000
946.000	382781.000
947.000	376790.000
948.000	366026.000
949.000	355314.000
950.000	343180.000
951.000	332106.000
952.000	318718.000
953.000	309393.000
954.000	299253.000
955.000	289834.000
956.000	282851.000
957.000	275816.000
958.000	270745.000
959.000	267985.000
960.000	264928.000
961.000	264298.000
962.000	263626.000
963.000	263951.000
964.000	265401.000
965.000	267437.000
966.000	270297.000
967.000	271915.000
968.000	274302.000
969.000	276159.000
970.000	277539.000
971.000	276931.000
972.000	277085.000
973.000	277545.000
974.000	275417.000
975.000	271804.000
976.000	268024.000
977.000	264930.000
978.000	260244.000
979.000	254316.000
980.000	249682.000
981.000	245846.000
982.000	241238.000
983.000	237515.000
984.000	233036.000
985.000	229716.000
986.000	226570.000
987.000	223073.000
